#  E (eV)   dos(E)     Int dos(E) EFermi =   -4.431 eV
 -21.000  0.0000E+00  0.0000E+00
 -20.990  0.0000E+00  0.0000E+00
 -20.980  0.0000E+00  0.0000E+00
 -20.970  0.0000E+00  0.0000E+00
 -20.960  0.0000E+00  0.0000E+00
 -20.950  0.0000E+00  0.0000E+00
 -20.940  0.0000E+00  0.0000E+00
 -20.930  0.0000E+00  0.0000E+00
 -20.920  0.0000E+00  0.0000E+00
 -20.910  0.0000E+00  0.0000E+00
 -20.900  0.0000E+00  0.0000E+00
 -20.890  0.0000E+00  0.0000E+00
 -20.880  0.0000E+00  0.0000E+00
 -20.870  0.0000E+00  0.0000E+00
 -20.860  0.0000E+00  0.0000E+00
 -20.850  0.0000E+00  0.0000E+00
 -20.840  0.0000E+00  0.0000E+00
 -20.830  0.0000E+00  0.0000E+00
 -20.820  0.0000E+00  0.0000E+00
 -20.810  0.0000E+00  0.0000E+00
 -20.800  0.0000E+00  0.0000E+00
 -20.790  0.0000E+00  0.0000E+00
 -20.780  0.0000E+00  0.0000E+00
 -20.770  0.0000E+00  0.0000E+00
 -20.760  0.0000E+00  0.0000E+00
 -20.750  0.0000E+00  0.0000E+00
 -20.740  0.0000E+00  0.0000E+00
 -20.730  0.0000E+00  0.0000E+00
 -20.720  0.0000E+00  0.0000E+00
 -20.710  0.0000E+00  0.0000E+00
 -20.700  0.0000E+00  0.0000E+00
 -20.690  0.0000E+00  0.0000E+00
 -20.680  0.0000E+00  0.0000E+00
 -20.670  0.3137E+01  0.4250E-01
 -20.660  0.3137E+01  0.7387E-01
 -20.650  0.1570E+01  0.8968E-01
 -20.640  0.1570E+01  0.1054E+00
 -20.630  0.1570E+01  0.1211E+00
 -20.620  0.1049E+01  0.1324E+00
 -20.610  0.1049E+01  0.1428E+00
 -20.600  0.1049E+01  0.1533E+00
 -20.590  0.1049E+01  0.1638E+00
 -20.580  0.7888E+00  0.1739E+00
 -20.570  0.7888E+00  0.1818E+00
 -20.560  0.7888E+00  0.1897E+00
 -20.550  0.7888E+00  0.1976E+00
 -20.540  0.7888E+00  0.2055E+00
 -20.530  0.7888E+00  0.2134E+00
 -20.520  0.7888E+00  0.2213E+00
 -20.510  0.6331E+00  0.2278E+00
 -20.500  0.6331E+00  0.2341E+00
 -20.490  0.6331E+00  0.2405E+00
 -20.480  0.6331E+00  0.2468E+00
 -20.470  0.6331E+00  0.2531E+00
 -20.460  0.6331E+00  0.2594E+00
 -20.450  0.6331E+00  0.2658E+00
 -20.440  0.5299E+00  0.2720E+00
 -20.430  0.5299E+00  0.2773E+00
 -20.420  0.5299E+00  0.2826E+00
 -20.410  0.5299E+00  0.2879E+00
 -20.400  0.5299E+00  0.2932E+00
 -20.390  0.5299E+00  0.2985E+00
 -20.380  0.5299E+00  0.3038E+00
 -20.370  0.5299E+00  0.3091E+00
 -20.360  0.5299E+00  0.3144E+00
 -20.350  0.5299E+00  0.3197E+00
 -20.340  0.4564E+00  0.3245E+00
 -20.330  0.4564E+00  0.3290E+00
 -20.320  0.4564E+00  0.3336E+00
 -20.310  0.4564E+00  0.3381E+00
 -20.300  0.4564E+00  0.3427E+00
 -20.290  0.4564E+00  0.3473E+00
 -20.280  0.4564E+00  0.3518E+00
 -20.270  0.4564E+00  0.3564E+00
 -20.260  0.4564E+00  0.3610E+00
 -20.250  0.4564E+00  0.3655E+00
 -20.240  0.4564E+00  0.3701E+00
 -20.230  0.4017E+00  0.3741E+00
 -20.220  0.4017E+00  0.3782E+00
 -20.210  0.4017E+00  0.3822E+00
 -20.200  0.4017E+00  0.3862E+00
 -20.190  0.4017E+00  0.3902E+00
 -20.180  0.4017E+00  0.3942E+00
 -20.170  0.4017E+00  0.3982E+00
 -20.160  0.4017E+00  0.4023E+00
 -20.150  0.4017E+00  0.4063E+00
 -20.140  0.4017E+00  0.4103E+00
 -20.130  0.4017E+00  0.4143E+00
 -20.120  0.4017E+00  0.4183E+00
 -20.110  0.3595E+00  0.4221E+00
 -20.100  0.3595E+00  0.4257E+00
 -20.090  0.3595E+00  0.4293E+00
 -20.080  0.3595E+00  0.4329E+00
 -20.070  0.3595E+00  0.4365E+00
 -20.060  0.3595E+00  0.4401E+00
 -20.050  0.3595E+00  0.4436E+00
 -20.040  0.3595E+00  0.4472E+00
 -20.030  0.3595E+00  0.4508E+00
 -20.020  0.3595E+00  0.4544E+00
 -20.010  0.3595E+00  0.4580E+00
 -20.000  0.3595E+00  0.4616E+00
 -19.990  0.3595E+00  0.4652E+00
 -19.980  0.3595E+00  0.4688E+00
 -19.970  0.3260E+00  0.4721E+00
 -19.960  0.3260E+00  0.4754E+00
 -19.950  0.3260E+00  0.4786E+00
 -19.940  0.3260E+00  0.4819E+00
 -19.930  0.3260E+00  0.4851E+00
 -19.920  0.3260E+00  0.4884E+00
 -19.910  0.3260E+00  0.4917E+00
 -19.900  0.3260E+00  0.4949E+00
 -19.890  0.3260E+00  0.4982E+00
 -19.880  0.3260E+00  0.5014E+00
 -19.870  0.3260E+00  0.5047E+00
 -19.860  0.3260E+00  0.5080E+00
 -19.850  0.3260E+00  0.5112E+00
 -19.840  0.3260E+00  0.5145E+00
 -19.830  0.3260E+00  0.5177E+00
 -19.820  0.2990E+00  0.5208E+00
 -19.810  0.2990E+00  0.5238E+00
 -19.800  0.2990E+00  0.5268E+00
 -19.790  0.2990E+00  0.5298E+00
 -19.780  0.2990E+00  0.5328E+00
 -19.770  0.2990E+00  0.5358E+00
 -19.760  0.2990E+00  0.5387E+00
 -19.750  0.2990E+00  0.5417E+00
 -19.740  0.2990E+00  0.5447E+00
 -19.730  0.2990E+00  0.5477E+00
 -19.720  0.2990E+00  0.5507E+00
 -19.710  0.2990E+00  0.5537E+00
 -19.700  0.2990E+00  0.5567E+00
 -19.690  0.2990E+00  0.5597E+00
 -19.680  0.2990E+00  0.5627E+00
 -19.670  0.2990E+00  0.5656E+00
 -19.660  0.2768E+00  0.5686E+00
 -19.650  0.2768E+00  0.5714E+00
 -19.640  0.2768E+00  0.5741E+00
 -19.630  0.2768E+00  0.5769E+00
 -19.620  0.2768E+00  0.5797E+00
 -19.610  0.2768E+00  0.5824E+00
 -19.600  0.2768E+00  0.5852E+00
 -19.590  0.2768E+00  0.5880E+00
 -19.580  0.2768E+00  0.5907E+00
 -19.570  0.2768E+00  0.5935E+00
 -19.560  0.2768E+00  0.5963E+00
 -19.550  0.2768E+00  0.5990E+00
 -19.540  0.2768E+00  0.6018E+00
 -19.530  0.2768E+00  0.6046E+00
 -19.520  0.2768E+00  0.6073E+00
 -19.510  0.2768E+00  0.6101E+00
 -19.500  0.2768E+00  0.6129E+00
 -19.490  0.2768E+00  0.6156E+00
 -19.480  0.2583E+00  0.6183E+00
 -19.470  0.2583E+00  0.6209E+00
 -19.460  0.2583E+00  0.6235E+00
 -19.450  0.2583E+00  0.6261E+00
 -19.440  0.2583E+00  0.6287E+00
 -19.430  0.2583E+00  0.6312E+00
 -19.420  0.2583E+00  0.6338E+00
 -19.410  0.2583E+00  0.6364E+00
 -19.400  0.2583E+00  0.6390E+00
 -19.390  0.2583E+00  0.6416E+00
 -19.380  0.2583E+00  0.6442E+00
 -19.370  0.2583E+00  0.6467E+00
 -19.360  0.2583E+00  0.6493E+00
 -19.350  0.2583E+00  0.6519E+00
 -19.340  0.2583E+00  0.6545E+00
 -19.330  0.2583E+00  0.6571E+00
 -19.320  0.2583E+00  0.6597E+00
 -19.310  0.2583E+00  0.6622E+00
 -19.300  0.2583E+00  0.6648E+00
 -19.290  0.2427E+00  0.6674E+00
 -19.280  0.2427E+00  0.6698E+00
 -19.270  0.2427E+00  0.6722E+00
 -19.260  0.2427E+00  0.6746E+00
 -19.250  0.2427E+00  0.6771E+00
 -19.240  0.2427E+00  0.6795E+00
 -19.230  0.2427E+00  0.6819E+00
 -19.220  0.2427E+00  0.6843E+00
 -19.210  0.2427E+00  0.6868E+00
 -19.200  0.2427E+00  0.6892E+00
 -19.190  0.2427E+00  0.6916E+00
 -19.180  0.2427E+00  0.6941E+00
 -19.170  0.2427E+00  0.6965E+00
 -19.160  0.2427E+00  0.6989E+00
 -19.150  0.2427E+00  0.7013E+00
 -19.140  0.2427E+00  0.7038E+00
 -19.130  0.2427E+00  0.7062E+00
 -19.120  0.2427E+00  0.7086E+00
 -19.110  0.2427E+00  0.7110E+00
 -19.100  0.2427E+00  0.7135E+00
 -19.090  0.2427E+00  0.7159E+00
 -19.080  0.2296E+00  0.7182E+00
 -19.070  0.2296E+00  0.7205E+00
 -19.060  0.2296E+00  0.7228E+00
 -19.050  0.2296E+00  0.7251E+00
 -19.040  0.2296E+00  0.7274E+00
 -19.030  0.2296E+00  0.7297E+00
 -19.020  0.2296E+00  0.7320E+00
 -19.010  0.2296E+00  0.7343E+00
 -19.000  0.2296E+00  0.7366E+00
 -18.990  0.2296E+00  0.7389E+00
 -18.980  0.2296E+00  0.7412E+00
 -18.970  0.2296E+00  0.7435E+00
 -18.960  0.2296E+00  0.7458E+00
 -18.950  0.2296E+00  0.7480E+00
 -18.940  0.2296E+00  0.7503E+00
 -18.930  0.2296E+00  0.7526E+00
 -18.920  0.2296E+00  0.7549E+00
 -18.910  0.2296E+00  0.7572E+00
 -18.900  0.2296E+00  0.7595E+00
 -18.890  0.2296E+00  0.7618E+00
 -18.880  0.2296E+00  0.7641E+00
 -18.870  0.2184E+00  0.7664E+00
 -18.860  0.2184E+00  0.7686E+00
 -18.850  0.2184E+00  0.7707E+00
 -18.840  0.2184E+00  0.7729E+00
 -18.830  0.2184E+00  0.7751E+00
 -18.820  0.2184E+00  0.7773E+00
 -18.810  0.2184E+00  0.7795E+00
 -18.800  0.2184E+00  0.7817E+00
 -18.790  0.2184E+00  0.7838E+00
 -18.780  0.2184E+00  0.7860E+00
 -18.770  0.2184E+00  0.7882E+00
 -18.760  0.2184E+00  0.7904E+00
 -18.750  0.2184E+00  0.7926E+00
 -18.740  0.2184E+00  0.7948E+00
 -18.730  0.2184E+00  0.7970E+00
 -18.720  0.2184E+00  0.7991E+00
 -18.710  0.2184E+00  0.8013E+00
 -18.700  0.2184E+00  0.8035E+00
 -18.690  0.2184E+00  0.8057E+00
 -18.680  0.2184E+00  0.8079E+00
 -18.670  0.2184E+00  0.8101E+00
 -18.660  0.2184E+00  0.8122E+00
 -18.650  0.2184E+00  0.8144E+00
 -18.640  0.2090E+00  0.8165E+00
 -18.630  0.2090E+00  0.8186E+00
 -18.620  0.2090E+00  0.8207E+00
 -18.610  0.2090E+00  0.8228E+00
 -18.600  0.2090E+00  0.8249E+00
 -18.590  0.2090E+00  0.8270E+00
 -18.580  0.2090E+00  0.8291E+00
 -18.570  0.2090E+00  0.8312E+00
 -18.560  0.2090E+00  0.8333E+00
 -18.550  0.2090E+00  0.8353E+00
 -18.540  0.2090E+00  0.8374E+00
 -18.530  0.2090E+00  0.8395E+00
 -18.520  0.2090E+00  0.8416E+00
 -18.510  0.2090E+00  0.8437E+00
 -18.500  0.2090E+00  0.8458E+00
 -18.490  0.2090E+00  0.8479E+00
 -18.480  0.2090E+00  0.8500E+00
 -18.470  0.2090E+00  0.8521E+00
 -18.460  0.2090E+00  0.8541E+00
 -18.450  0.2090E+00  0.8562E+00
 -18.440  0.2090E+00  0.8583E+00
 -18.430  0.2090E+00  0.8604E+00
 -18.420  0.2090E+00  0.8625E+00
 -18.410  0.2010E+00  0.8646E+00
 -18.400  0.2010E+00  0.8666E+00
 -18.390  0.2010E+00  0.8686E+00
 -18.380  0.2010E+00  0.8706E+00
 -18.370  0.2010E+00  0.8726E+00
 -18.360  0.2010E+00  0.8746E+00
 -18.350  0.2010E+00  0.8766E+00
 -18.340  0.2010E+00  0.8787E+00
 -18.330  0.2010E+00  0.8807E+00
 -18.320  0.2010E+00  0.8827E+00
 -18.310  0.2010E+00  0.8847E+00
 -18.300  0.2010E+00  0.8867E+00
 -18.290  0.2010E+00  0.8887E+00
 -18.280  0.2010E+00  0.8907E+00
 -18.270  0.2010E+00  0.8927E+00
 -18.260  0.2010E+00  0.8947E+00
 -18.250  0.2010E+00  0.8967E+00
 -18.240  0.2010E+00  0.8987E+00
 -18.230  0.2010E+00  0.9008E+00
 -18.220  0.2010E+00  0.9028E+00
 -18.210  0.2010E+00  0.9048E+00
 -18.200  0.2010E+00  0.9068E+00
 -18.190  0.2010E+00  0.9088E+00
 -18.180  0.2010E+00  0.9108E+00
 -18.170  0.2010E+00  0.9128E+00
 -18.160  0.1942E+00  0.9148E+00
 -18.150  0.1942E+00  0.9167E+00
 -18.140  0.1942E+00  0.9187E+00
 -18.130  0.1942E+00  0.9206E+00
 -18.120  0.1942E+00  0.9226E+00
 -18.110  0.1942E+00  0.9245E+00
 -18.100  0.1942E+00  0.9264E+00
 -18.090  0.1942E+00  0.9284E+00
 -18.080  0.1942E+00  0.9303E+00
 -18.070  0.1942E+00  0.9323E+00
 -18.060  0.1942E+00  0.9342E+00
 -18.050  0.1942E+00  0.9362E+00
 -18.040  0.1942E+00  0.9381E+00
 -18.030  0.1942E+00  0.9400E+00
 -18.020  0.1942E+00  0.9420E+00
 -18.010  0.1942E+00  0.9439E+00
 -18.000  0.1942E+00  0.9459E+00
 -17.990  0.1942E+00  0.9478E+00
 -17.980  0.1942E+00  0.9497E+00
 -17.970  0.1942E+00  0.9517E+00
 -17.960  0.1942E+00  0.9536E+00
 -17.950  0.1942E+00  0.9556E+00
 -17.940  0.1942E+00  0.9575E+00
 -17.930  0.1942E+00  0.9595E+00
 -17.920  0.1942E+00  0.9614E+00
 -17.910  0.1887E+00  0.9633E+00
 -17.900  0.1887E+00  0.9652E+00
 -17.890  0.1887E+00  0.9671E+00
 -17.880  0.1887E+00  0.9690E+00
 -17.870  0.1887E+00  0.9709E+00
 -17.860  0.1887E+00  0.9728E+00
 -17.850  0.1887E+00  0.9747E+00
 -17.840  0.1887E+00  0.9765E+00
 -17.830  0.1887E+00  0.9784E+00
 -17.820  0.1887E+00  0.9803E+00
 -17.810  0.1887E+00  0.9822E+00
 -17.800  0.1887E+00  0.9841E+00
 -17.790  0.1887E+00  0.9860E+00
 -17.780  0.1887E+00  0.9879E+00
 -17.770  0.1887E+00  0.9897E+00
 -17.760  0.1887E+00  0.9916E+00
 -17.750  0.1887E+00  0.9935E+00
 -17.740  0.1887E+00  0.9954E+00
 -17.730  0.1887E+00  0.9973E+00
 -17.720  0.1887E+00  0.9992E+00
 -17.710  0.1887E+00  0.1001E+01
 -17.700  0.1887E+00  0.1003E+01
 -17.690  0.1887E+00  0.1005E+01
 -17.680  0.1887E+00  0.1007E+01
 -17.670  0.1887E+00  0.1009E+01
 -17.660  0.1887E+00  0.1010E+01
 -17.650  0.1841E+00  0.1012E+01
 -17.640  0.1841E+00  0.1014E+01
 -17.630  0.1841E+00  0.1016E+01
 -17.620  0.1841E+00  0.1018E+01
 -17.610  0.1841E+00  0.1020E+01
 -17.600  0.1841E+00  0.1022E+01
 -17.590  0.1841E+00  0.1023E+01
 -17.580  0.1841E+00  0.1025E+01
 -17.570  0.1841E+00  0.1027E+01
 -17.560  0.1841E+00  0.1029E+01
 -17.550  0.1841E+00  0.1031E+01
 -17.540  0.1841E+00  0.1033E+01
 -17.530  0.1841E+00  0.1034E+01
 -17.520  0.1841E+00  0.1036E+01
 -17.510  0.1841E+00  0.1038E+01
 -17.500  0.1841E+00  0.1040E+01
 -17.490  0.1841E+00  0.1042E+01
 -17.480  0.1841E+00  0.1044E+01
 -17.470  0.1841E+00  0.1046E+01
 -17.460  0.1841E+00  0.1047E+01
 -17.450  0.1841E+00  0.1049E+01
 -17.440  0.1841E+00  0.1051E+01
 -17.430  0.1841E+00  0.1053E+01
 -17.420  0.1841E+00  0.1055E+01
 -17.410  0.1841E+00  0.1057E+01
 -17.400  0.1841E+00  0.1058E+01
 -17.390  0.1841E+00  0.1060E+01
 -17.380  0.1806E+00  0.1062E+01
 -17.370  0.1806E+00  0.1064E+01
 -17.360  0.1806E+00  0.1066E+01
 -17.350  0.1806E+00  0.1068E+01
 -17.340  0.1806E+00  0.1069E+01
 -17.330  0.1806E+00  0.1071E+01
 -17.320  0.1806E+00  0.1073E+01
 -17.310  0.1806E+00  0.1075E+01
 -17.300  0.1806E+00  0.1077E+01
 -17.290  0.1806E+00  0.1078E+01
 -17.280  0.1806E+00  0.1080E+01
 -17.270  0.1806E+00  0.1082E+01
 -17.260  0.1806E+00  0.1084E+01
 -17.250  0.1806E+00  0.1086E+01
 -17.240  0.1806E+00  0.1087E+01
 -17.230  0.1806E+00  0.1089E+01
 -17.220  0.1806E+00  0.1091E+01
 -17.210  0.1806E+00  0.1093E+01
 -17.200  0.1806E+00  0.1095E+01
 -17.190  0.1806E+00  0.1096E+01
 -17.180  0.1806E+00  0.1098E+01
 -17.170  0.1806E+00  0.1100E+01
 -17.160  0.1806E+00  0.1102E+01
 -17.150  0.1806E+00  0.1104E+01
 -17.140  0.1806E+00  0.1105E+01
 -17.130  0.1806E+00  0.1107E+01
 -17.120  0.1806E+00  0.1109E+01
 -17.110  0.1806E+00  0.1111E+01
 -17.100  0.1780E+00  0.1113E+01
 -17.090  0.1780E+00  0.1114E+01
 -17.080  0.1780E+00  0.1116E+01
 -17.070  0.1780E+00  0.1118E+01
 -17.060  0.1780E+00  0.1120E+01
 -17.050  0.1780E+00  0.1122E+01
 -17.040  0.1780E+00  0.1123E+01
 -17.030  0.1780E+00  0.1125E+01
 -17.020  0.1780E+00  0.1127E+01
 -17.010  0.1780E+00  0.1129E+01
 -17.000  0.1780E+00  0.1130E+01
 -16.990  0.1780E+00  0.1132E+01
 -16.980  0.1780E+00  0.1134E+01
 -16.970  0.1780E+00  0.1136E+01
 -16.960  0.1780E+00  0.1138E+01
 -16.950  0.1780E+00  0.1139E+01
 -16.940  0.1780E+00  0.1141E+01
 -16.930  0.1780E+00  0.1143E+01
 -16.920  0.1780E+00  0.1145E+01
 -16.910  0.1780E+00  0.1146E+01
 -16.900  0.1780E+00  0.1148E+01
 -16.890  0.1780E+00  0.1150E+01
 -16.880  0.1780E+00  0.1152E+01
 -16.870  0.1780E+00  0.1154E+01
 -16.860  0.1780E+00  0.1155E+01
 -16.850  0.1780E+00  0.1157E+01
 -16.840  0.1780E+00  0.1159E+01
 -16.830  0.1765E+00  0.1161E+01
 -16.820  0.1765E+00  0.1162E+01
 -16.810  0.1765E+00  0.1164E+01
 -16.800  0.1765E+00  0.1166E+01
 -16.790  0.1765E+00  0.1168E+01
 -16.780  0.1765E+00  0.1170E+01
 -16.770  0.1765E+00  0.1171E+01
 -16.760  0.1765E+00  0.1173E+01
 -16.750  0.1765E+00  0.1175E+01
 -16.740  0.1765E+00  0.1177E+01
 -16.730  0.1765E+00  0.1178E+01
 -16.720  0.1765E+00  0.1180E+01
 -16.710  0.1765E+00  0.1182E+01
 -16.700  0.1765E+00  0.1184E+01
 -16.690  0.1765E+00  0.1185E+01
 -16.680  0.1765E+00  0.1187E+01
 -16.670  0.1765E+00  0.1189E+01
 -16.660  0.1765E+00  0.1191E+01
 -16.650  0.1765E+00  0.1192E+01
 -16.640  0.1765E+00  0.1194E+01
 -16.630  0.1765E+00  0.1196E+01
 -16.620  0.1765E+00  0.1198E+01
 -16.610  0.1765E+00  0.1200E+01
 -16.600  0.1765E+00  0.1201E+01
 -16.590  0.1765E+00  0.1203E+01
 -16.580  0.1765E+00  0.1205E+01
 -16.570  0.1765E+00  0.1207E+01
 -16.560  0.1765E+00  0.1208E+01
 -16.550  0.1759E+00  0.1210E+01
 -16.540  0.1759E+00  0.1212E+01
 -16.530  0.1759E+00  0.1214E+01
 -16.520  0.1759E+00  0.1215E+01
 -16.510  0.1759E+00  0.1217E+01
 -16.500  0.1759E+00  0.1219E+01
 -16.490  0.1759E+00  0.1221E+01
 -16.480  0.1759E+00  0.1222E+01
 -16.470  0.1759E+00  0.1224E+01
 -16.460  0.1759E+00  0.1226E+01
 -16.450  0.1759E+00  0.1228E+01
 -16.440  0.1759E+00  0.1229E+01
 -16.430  0.1759E+00  0.1231E+01
 -16.420  0.1759E+00  0.1233E+01
 -16.410  0.1759E+00  0.1235E+01
 -16.400  0.1759E+00  0.1237E+01
 -16.390  0.1759E+00  0.1238E+01
 -16.380  0.1759E+00  0.1240E+01
 -16.370  0.1759E+00  0.1242E+01
 -16.360  0.1759E+00  0.1244E+01
 -16.350  0.1759E+00  0.1245E+01
 -16.340  0.1759E+00  0.1247E+01
 -16.330  0.1759E+00  0.1249E+01
 -16.320  0.1759E+00  0.1251E+01
 -16.310  0.1759E+00  0.1252E+01
 -16.300  0.1759E+00  0.1254E+01
 -16.290  0.1759E+00  0.1256E+01
 -16.280  0.1759E+00  0.1258E+01
 -16.270  0.1764E+00  0.1259E+01
 -16.260  0.1764E+00  0.1261E+01
 -16.250  0.1764E+00  0.1263E+01
 -16.240  0.1764E+00  0.1265E+01
 -16.230  0.1764E+00  0.1266E+01
 -16.220  0.1764E+00  0.1268E+01
 -16.210  0.1764E+00  0.1270E+01
 -16.200  0.1764E+00  0.1272E+01
 -16.190  0.1764E+00  0.1273E+01
 -16.180  0.1764E+00  0.1275E+01
 -16.170  0.1764E+00  0.1277E+01
 -16.160  0.1764E+00  0.1279E+01
 -16.150  0.1764E+00  0.1281E+01
 -16.140  0.1764E+00  0.1282E+01
 -16.130  0.1764E+00  0.1284E+01
 -16.120  0.1764E+00  0.1286E+01
 -16.110  0.1764E+00  0.1288E+01
 -16.100  0.1764E+00  0.1289E+01
 -16.090  0.1764E+00  0.1291E+01
 -16.080  0.1764E+00  0.1293E+01
 -16.070  0.1764E+00  0.1295E+01
 -16.060  0.1764E+00  0.1296E+01
 -16.050  0.1764E+00  0.1298E+01
 -16.040  0.1764E+00  0.1300E+01
 -16.030  0.1764E+00  0.1302E+01
 -16.020  0.1764E+00  0.1303E+01
 -16.010  0.1764E+00  0.1305E+01
 -16.000  0.1764E+00  0.1307E+01
 -15.990  0.1782E+00  0.1309E+01
 -15.980  0.1782E+00  0.1311E+01
 -15.970  0.1782E+00  0.1312E+01
 -15.960  0.1782E+00  0.1314E+01
 -15.950  0.1782E+00  0.1316E+01
 -15.940  0.1782E+00  0.1318E+01
 -15.930  0.1782E+00  0.1319E+01
 -15.920  0.1782E+00  0.1321E+01
 -15.910  0.1782E+00  0.1323E+01
 -15.900  0.1782E+00  0.1325E+01
 -15.890  0.1782E+00  0.1327E+01
 -15.880  0.1782E+00  0.1328E+01
 -15.870  0.1782E+00  0.1330E+01
 -15.860  0.1782E+00  0.1332E+01
 -15.850  0.1782E+00  0.1334E+01
 -15.840  0.1782E+00  0.1336E+01
 -15.830  0.1782E+00  0.1337E+01
 -15.820  0.1782E+00  0.1339E+01
 -15.810  0.1782E+00  0.1341E+01
 -15.800  0.1782E+00  0.1343E+01
 -15.790  0.1782E+00  0.1344E+01
 -15.780  0.1782E+00  0.1346E+01
 -15.770  0.1782E+00  0.1348E+01
 -15.760  0.1782E+00  0.1350E+01
 -15.750  0.1782E+00  0.1352E+01
 -15.740  0.1782E+00  0.1353E+01
 -15.730  0.1782E+00  0.1355E+01
 -15.720  0.1782E+00  0.1357E+01
 -15.710  0.1814E+00  0.1359E+01
 -15.700  0.1814E+00  0.1361E+01
 -15.690  0.1814E+00  0.1362E+01
 -15.680  0.1814E+00  0.1364E+01
 -15.670  0.1814E+00  0.1366E+01
 -15.660  0.1814E+00  0.1368E+01
 -15.650  0.1814E+00  0.1370E+01
 -15.640  0.1814E+00  0.1371E+01
 -15.630  0.1814E+00  0.1373E+01
 -15.620  0.1814E+00  0.1375E+01
 -15.610  0.1814E+00  0.1377E+01
 -15.600  0.1814E+00  0.1379E+01
 -15.590  0.1814E+00  0.1380E+01
 -15.580  0.1814E+00  0.1382E+01
 -15.570  0.1814E+00  0.1384E+01
 -15.560  0.1814E+00  0.1386E+01
 -15.550  0.1814E+00  0.1388E+01
 -15.540  0.1814E+00  0.1390E+01
 -15.530  0.1814E+00  0.1391E+01
 -15.520  0.1814E+00  0.1393E+01
 -15.510  0.1814E+00  0.1395E+01
 -15.500  0.1814E+00  0.1397E+01
 -15.490  0.1814E+00  0.1399E+01
 -15.480  0.1814E+00  0.1400E+01
 -15.470  0.1814E+00  0.1402E+01
 -15.460  0.1814E+00  0.1404E+01
 -15.450  0.1814E+00  0.1406E+01
 -15.440  0.1863E+00  0.1408E+01
 -15.430  0.1863E+00  0.1410E+01
 -15.420  0.1863E+00  0.1411E+01
 -15.410  0.1863E+00  0.1413E+01
 -15.400  0.1863E+00  0.1415E+01
 -15.390  0.1863E+00  0.1417E+01
 -15.380  0.1863E+00  0.1419E+01
 -15.370  0.1863E+00  0.1421E+01
 -15.360  0.1863E+00  0.1423E+01
 -15.350  0.1863E+00  0.1424E+01
 -15.340  0.1863E+00  0.1426E+01
 -15.330  0.1863E+00  0.1428E+01
 -15.320  0.1863E+00  0.1430E+01
 -15.310  0.1863E+00  0.1432E+01
 -15.300  0.1863E+00  0.1434E+01
 -15.290  0.1863E+00  0.1436E+01
 -15.280  0.1863E+00  0.1437E+01
 -15.270  0.1863E+00  0.1439E+01
 -15.260  0.1863E+00  0.1441E+01
 -15.250  0.1863E+00  0.1443E+01
 -15.240  0.1863E+00  0.1445E+01
 -15.230  0.1863E+00  0.1447E+01
 -15.220  0.1863E+00  0.1449E+01
 -15.210  0.1863E+00  0.1451E+01
 -15.200  0.1863E+00  0.1452E+01
 -15.190  0.1863E+00  0.1454E+01
 -15.180  0.1863E+00  0.1456E+01
 -15.170  0.1932E+00  0.1458E+01
 -15.160  0.1932E+00  0.1460E+01
 -15.150  0.1932E+00  0.1462E+01
 -15.140  0.1932E+00  0.1464E+01
 -15.130  0.1932E+00  0.1466E+01
 -15.120  0.1932E+00  0.1468E+01
 -15.110  0.1932E+00  0.1470E+01
 -15.100  0.1932E+00  0.1472E+01
 -15.090  0.1932E+00  0.1473E+01
 -15.080  0.1932E+00  0.1475E+01
 -15.070  0.1932E+00  0.1477E+01
 -15.060  0.1932E+00  0.1479E+01
 -15.050  0.1932E+00  0.1481E+01
 -15.040  0.1932E+00  0.1483E+01
 -15.030  0.1932E+00  0.1485E+01
 -15.020  0.1932E+00  0.1487E+01
 -15.010  0.1932E+00  0.1489E+01
 -15.000  0.1932E+00  0.1491E+01
 -14.990  0.1932E+00  0.1493E+01
 -14.980  0.1932E+00  0.1495E+01
 -14.970  0.1932E+00  0.1497E+01
 -14.960  0.1932E+00  0.1499E+01
 -14.950  0.1932E+00  0.1501E+01
 -14.940  0.1932E+00  0.1502E+01
 -14.930  0.1932E+00  0.1504E+01
 -14.920  0.2028E+00  0.1506E+01
 -14.910  0.2028E+00  0.1508E+01
 -14.900  0.2028E+00  0.1510E+01
 -14.890  0.2028E+00  0.1512E+01
 -14.880  0.2028E+00  0.1514E+01
 -14.870  0.2028E+00  0.1516E+01
 -14.860  0.2028E+00  0.1518E+01
 -14.850  0.2028E+00  0.1520E+01
 -14.840  0.2028E+00  0.1523E+01
 -14.830  0.2028E+00  0.1525E+01
 -14.820  0.2028E+00  0.1527E+01
 -14.810  0.2028E+00  0.1529E+01
 -14.800  0.2028E+00  0.1531E+01
 -14.790  0.2028E+00  0.1533E+01
 -14.780  0.2028E+00  0.1535E+01
 -14.770  0.2028E+00  0.1537E+01
 -14.760  0.2028E+00  0.1539E+01
 -14.750  0.2028E+00  0.1541E+01
 -14.740  0.2028E+00  0.1543E+01
 -14.730  0.2028E+00  0.1545E+01
 -14.720  0.2028E+00  0.1547E+01
 -14.710  0.2028E+00  0.1549E+01
 -14.700  0.2028E+00  0.1551E+01
 -14.690  0.2028E+00  0.1553E+01
 -14.680  0.2028E+00  0.1555E+01
 -14.670  0.2160E+00  0.1557E+01
 -14.660  0.2160E+00  0.1559E+01
 -14.650  0.2160E+00  0.1561E+01
 -14.640  0.2160E+00  0.1564E+01
 -14.630  0.2160E+00  0.1566E+01
 -14.620  0.2160E+00  0.1568E+01
 -14.610  0.2160E+00  0.1570E+01
 -14.600  0.2160E+00  0.1572E+01
 -14.590  0.2160E+00  0.1574E+01
 -14.580  0.2160E+00  0.1577E+01
 -14.570  0.2160E+00  0.1579E+01
 -14.560  0.2160E+00  0.1581E+01
 -14.550  0.2160E+00  0.1583E+01
 -14.540  0.2160E+00  0.1585E+01
 -14.530  0.2160E+00  0.1587E+01
 -14.520  0.2160E+00  0.1589E+01
 -14.510  0.2160E+00  0.1592E+01
 -14.500  0.2160E+00  0.1594E+01
 -14.490  0.2160E+00  0.1596E+01
 -14.480  0.2160E+00  0.1598E+01
 -14.470  0.2160E+00  0.1600E+01
 -14.460  0.2160E+00  0.1602E+01
 -14.450  0.2160E+00  0.1605E+01
 -14.440  0.2341E+00  0.1607E+01
 -14.430  0.2341E+00  0.1609E+01
 -14.420  0.2341E+00  0.1612E+01
 -14.410  0.2341E+00  0.1614E+01
 -14.400  0.2341E+00  0.1616E+01
 -14.390  0.2341E+00  0.1619E+01
 -14.380  0.2341E+00  0.1621E+01
 -14.370  0.2341E+00  0.1623E+01
 -14.360  0.2341E+00  0.1626E+01
 -14.350  0.2341E+00  0.1628E+01
 -14.340  0.2341E+00  0.1630E+01
 -14.330  0.2341E+00  0.1633E+01
 -14.320  0.2341E+00  0.1635E+01
 -14.310  0.2341E+00  0.1637E+01
 -14.300  0.2341E+00  0.1640E+01
 -14.290  0.2341E+00  0.1642E+01
 -14.280  0.2341E+00  0.1644E+01
 -14.270  0.2341E+00  0.1647E+01
 -14.260  0.2341E+00  0.1649E+01
 -14.250  0.2341E+00  0.1651E+01
 -14.240  0.2341E+00  0.1654E+01
 -14.230  0.2593E+00  0.1656E+01
 -14.220  0.2593E+00  0.1659E+01
 -14.210  0.2593E+00  0.1661E+01
 -14.200  0.2593E+00  0.1664E+01
 -14.190  0.2593E+00  0.1667E+01
 -14.180  0.2593E+00  0.1669E+01
 -14.170  0.2593E+00  0.1672E+01
 -14.160  0.2593E+00  0.1674E+01
 -14.150  0.2593E+00  0.1677E+01
 -14.140  0.2593E+00  0.1680E+01
 -14.130  0.2593E+00  0.1682E+01
 -14.120  0.2593E+00  0.1685E+01
 -14.110  0.2593E+00  0.1687E+01
 -14.100  0.2593E+00  0.1690E+01
 -14.090  0.2593E+00  0.1693E+01
 -14.080  0.2593E+00  0.1695E+01
 -14.070  0.2593E+00  0.1698E+01
 -14.060  0.2593E+00  0.1700E+01
 -14.050  0.2593E+00  0.1703E+01
 -14.040  0.2956E+00  0.1706E+01
 -14.030  0.2956E+00  0.1709E+01
 -14.020  0.2956E+00  0.1712E+01
 -14.010  0.2956E+00  0.1715E+01
 -14.000  0.2956E+00  0.1718E+01
 -13.990  0.2956E+00  0.1721E+01
 -13.980  0.2956E+00  0.1724E+01
 -13.970  0.2956E+00  0.1726E+01
 -13.960  0.2956E+00  0.1729E+01
 -13.950  0.2956E+00  0.1732E+01
 -13.940  0.2956E+00  0.1735E+01
 -13.930  0.2956E+00  0.1738E+01
 -13.920  0.2956E+00  0.1741E+01
 -13.910  0.2956E+00  0.1744E+01
 -13.900  0.2956E+00  0.1747E+01
 -13.890  0.2956E+00  0.1750E+01
 -13.880  0.3502E+00  0.1753E+01
 -13.870  0.3502E+00  0.1757E+01
 -13.860  0.3502E+00  0.1760E+01
 -13.850  0.3502E+00  0.1764E+01
 -13.840  0.3502E+00  0.1767E+01
 -13.830  0.3502E+00  0.1771E+01
 -13.820  0.3502E+00  0.1774E+01
 -13.810  0.3502E+00  0.1778E+01
 -13.800  0.3502E+00  0.1781E+01
 -13.790  0.3502E+00  0.1785E+01
 -13.780  0.3502E+00  0.1788E+01
 -13.770  0.3502E+00  0.1792E+01
 -13.760  0.3502E+00  0.1795E+01
 -13.750  0.3502E+00  0.1799E+01
 -13.740  0.3502E+00  0.1802E+01
 -13.730  0.4388E+00  0.1806E+01
 -13.720  0.4388E+00  0.1811E+01
 -13.710  0.4388E+00  0.1815E+01
 -13.700  0.4388E+00  0.1820E+01
 -13.690  0.4388E+00  0.1824E+01
 -13.680  0.4388E+00  0.1828E+01
 -13.670  0.4388E+00  0.1833E+01
 -13.660  0.4388E+00  0.1837E+01
 -13.650  0.4388E+00  0.1842E+01
 -13.640  0.4388E+00  0.1846E+01
 -13.630  0.4388E+00  0.1850E+01
 -13.620  0.6024E+00  0.1856E+01
 -13.610  0.6024E+00  0.1862E+01
 -13.600  0.6024E+00  0.1868E+01
 -13.590  0.6024E+00  0.1874E+01
 -13.580  0.6024E+00  0.1880E+01
 -13.570  0.6024E+00  0.1886E+01
 -13.560  0.6024E+00  0.1892E+01
 -13.550  0.6024E+00  0.1898E+01
 -13.540  0.9907E+00  0.1906E+01
 -13.530  0.9907E+00  0.1916E+01
 -13.520  0.9907E+00  0.1926E+01
 -13.510  0.9907E+00  0.1935E+01
 -13.500  0.9907E+00  0.1945E+01
 -13.490  0.2950E+01  0.1964E+01
 -13.480  0.2950E+01  0.1994E+01
 -13.470  0.0000E+00  0.2000E+01
 -13.460  0.0000E+00  0.2000E+01
 -13.450  0.0000E+00  0.2000E+01
 -13.440  0.0000E+00  0.2000E+01
 -13.430  0.0000E+00  0.2000E+01
 -13.420  0.0000E+00  0.2000E+01
 -13.410  0.0000E+00  0.2000E+01
 -13.400  0.0000E+00  0.2000E+01
 -13.390  0.0000E+00  0.2000E+01
 -13.380  0.0000E+00  0.2000E+01
 -13.370  0.0000E+00  0.2000E+01
 -13.360  0.0000E+00  0.2000E+01
 -13.350  0.0000E+00  0.2000E+01
 -13.340  0.0000E+00  0.2000E+01
 -13.330  0.0000E+00  0.2000E+01
 -13.320  0.0000E+00  0.2000E+01
 -13.310  0.0000E+00  0.2000E+01
 -13.300  0.0000E+00  0.2000E+01
 -13.290  0.0000E+00  0.2000E+01
 -13.280  0.0000E+00  0.2000E+01
 -13.270  0.0000E+00  0.2000E+01
 -13.260  0.0000E+00  0.2000E+01
 -13.250  0.0000E+00  0.2000E+01
 -13.240  0.0000E+00  0.2000E+01
 -13.230  0.0000E+00  0.2000E+01
 -13.220  0.0000E+00  0.2000E+01
 -13.210  0.0000E+00  0.2000E+01
 -13.200  0.0000E+00  0.2000E+01
 -13.190  0.0000E+00  0.2000E+01
 -13.180  0.0000E+00  0.2000E+01
 -13.170  0.0000E+00  0.2000E+01
 -13.160  0.0000E+00  0.2000E+01
 -13.150  0.0000E+00  0.2000E+01
 -13.140  0.0000E+00  0.2000E+01
 -13.130  0.0000E+00  0.2000E+01
 -13.120  0.0000E+00  0.2000E+01
 -13.110  0.0000E+00  0.2000E+01
 -13.100  0.0000E+00  0.2000E+01
 -13.090  0.0000E+00  0.2000E+01
 -13.080  0.0000E+00  0.2000E+01
 -13.070  0.0000E+00  0.2000E+01
 -13.060  0.0000E+00  0.2000E+01
 -13.050  0.0000E+00  0.2000E+01
 -13.040  0.0000E+00  0.2000E+01
 -13.030  0.0000E+00  0.2000E+01
 -13.020  0.0000E+00  0.2000E+01
 -13.010  0.0000E+00  0.2000E+01
 -13.000  0.0000E+00  0.2000E+01
 -12.990  0.0000E+00  0.2000E+01
 -12.980  0.0000E+00  0.2000E+01
 -12.970  0.0000E+00  0.2000E+01
 -12.960  0.0000E+00  0.2000E+01
 -12.950  0.0000E+00  0.2000E+01
 -12.940  0.0000E+00  0.2000E+01
 -12.930  0.0000E+00  0.2000E+01
 -12.920  0.0000E+00  0.2000E+01
 -12.910  0.0000E+00  0.2000E+01
 -12.900  0.0000E+00  0.2000E+01
 -12.890  0.0000E+00  0.2000E+01
 -12.880  0.0000E+00  0.2000E+01
 -12.870  0.0000E+00  0.2000E+01
 -12.860  0.0000E+00  0.2000E+01
 -12.850  0.0000E+00  0.2000E+01
 -12.840  0.0000E+00  0.2000E+01
 -12.830  0.0000E+00  0.2000E+01
 -12.820  0.0000E+00  0.2000E+01
 -12.810  0.0000E+00  0.2000E+01
 -12.800  0.0000E+00  0.2000E+01
 -12.790  0.0000E+00  0.2000E+01
 -12.780  0.0000E+00  0.2000E+01
 -12.770  0.0000E+00  0.2000E+01
 -12.760  0.0000E+00  0.2000E+01
 -12.750  0.0000E+00  0.2000E+01
 -12.740  0.0000E+00  0.2000E+01
 -12.730  0.0000E+00  0.2000E+01
 -12.720  0.0000E+00  0.2000E+01
 -12.710  0.0000E+00  0.2000E+01
 -12.700  0.0000E+00  0.2000E+01
 -12.690  0.0000E+00  0.2000E+01
 -12.680  0.0000E+00  0.2000E+01
 -12.670  0.0000E+00  0.2000E+01
 -12.660  0.0000E+00  0.2000E+01
 -12.650  0.0000E+00  0.2000E+01
 -12.640  0.0000E+00  0.2000E+01
 -12.630  0.0000E+00  0.2000E+01
 -12.620  0.0000E+00  0.2000E+01
 -12.610  0.0000E+00  0.2000E+01
 -12.600  0.0000E+00  0.2000E+01
 -12.590  0.0000E+00  0.2000E+01
 -12.580  0.0000E+00  0.2000E+01
 -12.570  0.0000E+00  0.2000E+01
 -12.560  0.0000E+00  0.2000E+01
 -12.550  0.0000E+00  0.2000E+01
 -12.540  0.0000E+00  0.2000E+01
 -12.530  0.0000E+00  0.2000E+01
 -12.520  0.0000E+00  0.2000E+01
 -12.510  0.0000E+00  0.2000E+01
 -12.500  0.0000E+00  0.2000E+01
 -12.490  0.0000E+00  0.2000E+01
 -12.480  0.0000E+00  0.2000E+01
 -12.470  0.0000E+00  0.2000E+01
 -12.460  0.0000E+00  0.2000E+01
 -12.450  0.0000E+00  0.2000E+01
 -12.440  0.0000E+00  0.2000E+01
 -12.430  0.0000E+00  0.2000E+01
 -12.420  0.0000E+00  0.2000E+01
 -12.410  0.0000E+00  0.2000E+01
 -12.400  0.0000E+00  0.2000E+01
 -12.390  0.0000E+00  0.2000E+01
 -12.380  0.0000E+00  0.2000E+01
 -12.370  0.0000E+00  0.2000E+01
 -12.360  0.0000E+00  0.2000E+01
 -12.350  0.0000E+00  0.2000E+01
 -12.340  0.0000E+00  0.2000E+01
 -12.330  0.0000E+00  0.2000E+01
 -12.320  0.0000E+00  0.2000E+01
 -12.310  0.0000E+00  0.2000E+01
 -12.300  0.0000E+00  0.2000E+01
 -12.290  0.0000E+00  0.2000E+01
 -12.280  0.0000E+00  0.2000E+01
 -12.270  0.0000E+00  0.2000E+01
 -12.260  0.0000E+00  0.2000E+01
 -12.250  0.0000E+00  0.2000E+01
 -12.240  0.0000E+00  0.2000E+01
 -12.230  0.0000E+00  0.2000E+01
 -12.220  0.0000E+00  0.2000E+01
 -12.210  0.0000E+00  0.2000E+01
 -12.200  0.0000E+00  0.2000E+01
 -12.190  0.0000E+00  0.2000E+01
 -12.180  0.0000E+00  0.2000E+01
 -12.170  0.0000E+00  0.2000E+01
 -12.160  0.0000E+00  0.2000E+01
 -12.150  0.0000E+00  0.2000E+01
 -12.140  0.0000E+00  0.2000E+01
 -12.130  0.0000E+00  0.2000E+01
 -12.120  0.0000E+00  0.2000E+01
 -12.110  0.0000E+00  0.2000E+01
 -12.100  0.0000E+00  0.2000E+01
 -12.090  0.0000E+00  0.2000E+01
 -12.080  0.0000E+00  0.2000E+01
 -12.070  0.0000E+00  0.2000E+01
 -12.060  0.0000E+00  0.2000E+01
 -12.050  0.0000E+00  0.2000E+01
 -12.040  0.0000E+00  0.2000E+01
 -12.030  0.0000E+00  0.2000E+01
 -12.020  0.0000E+00  0.2000E+01
 -12.010  0.0000E+00  0.2000E+01
 -12.000  0.0000E+00  0.2000E+01
 -11.990  0.0000E+00  0.2000E+01
 -11.980  0.0000E+00  0.2000E+01
 -11.970  0.0000E+00  0.2000E+01
 -11.960  0.0000E+00  0.2000E+01
 -11.950  0.0000E+00  0.2000E+01
 -11.940  0.0000E+00  0.2000E+01
 -11.930  0.0000E+00  0.2000E+01
 -11.920  0.0000E+00  0.2000E+01
 -11.910  0.0000E+00  0.2000E+01
 -11.900  0.0000E+00  0.2000E+01
 -11.890  0.0000E+00  0.2000E+01
 -11.880  0.0000E+00  0.2000E+01
 -11.870  0.0000E+00  0.2000E+01
 -11.860  0.0000E+00  0.2000E+01
 -11.850  0.0000E+00  0.2000E+01
 -11.840  0.0000E+00  0.2000E+01
 -11.830  0.0000E+00  0.2000E+01
 -11.820  0.0000E+00  0.2000E+01
 -11.810  0.0000E+00  0.2000E+01
 -11.800  0.0000E+00  0.2000E+01
 -11.790  0.0000E+00  0.2000E+01
 -11.780  0.0000E+00  0.2000E+01
 -11.770  0.0000E+00  0.2000E+01
 -11.760  0.0000E+00  0.2000E+01
 -11.750  0.0000E+00  0.2000E+01
 -11.740  0.0000E+00  0.2000E+01
 -11.730  0.0000E+00  0.2000E+01
 -11.720  0.0000E+00  0.2000E+01
 -11.710  0.0000E+00  0.2000E+01
 -11.700  0.0000E+00  0.2000E+01
 -11.690  0.0000E+00  0.2000E+01
 -11.680  0.0000E+00  0.2000E+01
 -11.670  0.0000E+00  0.2000E+01
 -11.660  0.0000E+00  0.2000E+01
 -11.650  0.0000E+00  0.2000E+01
 -11.640  0.0000E+00  0.2000E+01
 -11.630  0.0000E+00  0.2000E+01
 -11.620  0.0000E+00  0.2000E+01
 -11.610  0.0000E+00  0.2000E+01
 -11.600  0.0000E+00  0.2000E+01
 -11.590  0.0000E+00  0.2000E+01
 -11.580  0.0000E+00  0.2000E+01
 -11.570  0.0000E+00  0.2000E+01
 -11.560  0.0000E+00  0.2000E+01
 -11.550  0.0000E+00  0.2000E+01
 -11.540  0.0000E+00  0.2000E+01
 -11.530  0.0000E+00  0.2000E+01
 -11.520  0.0000E+00  0.2000E+01
 -11.510  0.0000E+00  0.2000E+01
 -11.500  0.0000E+00  0.2000E+01
 -11.490  0.0000E+00  0.2000E+01
 -11.480  0.0000E+00  0.2000E+01
 -11.470  0.0000E+00  0.2000E+01
 -11.460  0.0000E+00  0.2000E+01
 -11.450  0.0000E+00  0.2000E+01
 -11.440  0.0000E+00  0.2000E+01
 -11.430  0.0000E+00  0.2000E+01
 -11.420  0.0000E+00  0.2000E+01
 -11.410  0.0000E+00  0.2000E+01
 -11.400  0.0000E+00  0.2000E+01
 -11.390  0.0000E+00  0.2000E+01
 -11.380  0.0000E+00  0.2000E+01
 -11.370  0.0000E+00  0.2000E+01
 -11.360  0.0000E+00  0.2000E+01
 -11.350  0.0000E+00  0.2000E+01
 -11.340  0.0000E+00  0.2000E+01
 -11.330  0.0000E+00  0.2000E+01
 -11.320  0.0000E+00  0.2000E+01
 -11.310  0.0000E+00  0.2000E+01
 -11.300  0.0000E+00  0.2000E+01
 -11.290  0.0000E+00  0.2000E+01
 -11.280  0.0000E+00  0.2000E+01
 -11.270  0.0000E+00  0.2000E+01
 -11.260  0.0000E+00  0.2000E+01
 -11.250  0.0000E+00  0.2000E+01
 -11.240  0.0000E+00  0.2000E+01
 -11.230  0.0000E+00  0.2000E+01
 -11.220  0.0000E+00  0.2000E+01
 -11.210  0.0000E+00  0.2000E+01
 -11.200  0.0000E+00  0.2000E+01
 -11.190  0.0000E+00  0.2000E+01
 -11.180  0.0000E+00  0.2000E+01
 -11.170  0.0000E+00  0.2000E+01
 -11.160  0.0000E+00  0.2000E+01
 -11.150  0.0000E+00  0.2000E+01
 -11.140  0.0000E+00  0.2000E+01
 -11.130  0.0000E+00  0.2000E+01
 -11.120  0.0000E+00  0.2000E+01
 -11.110  0.0000E+00  0.2000E+01
 -11.100  0.0000E+00  0.2000E+01
 -11.090  0.0000E+00  0.2000E+01
 -11.080  0.0000E+00  0.2000E+01
 -11.070  0.0000E+00  0.2000E+01
 -11.060  0.0000E+00  0.2000E+01
 -11.050  0.0000E+00  0.2000E+01
 -11.040  0.0000E+00  0.2000E+01
 -11.030  0.0000E+00  0.2000E+01
 -11.020  0.0000E+00  0.2000E+01
 -11.010  0.0000E+00  0.2000E+01
 -11.000  0.0000E+00  0.2000E+01
 -10.990  0.0000E+00  0.2000E+01
 -10.980  0.0000E+00  0.2000E+01
 -10.970  0.0000E+00  0.2000E+01
 -10.960  0.0000E+00  0.2000E+01
 -10.950  0.0000E+00  0.2000E+01
 -10.940  0.0000E+00  0.2000E+01
 -10.930  0.0000E+00  0.2000E+01
 -10.920  0.0000E+00  0.2000E+01
 -10.910  0.0000E+00  0.2000E+01
 -10.900  0.0000E+00  0.2000E+01
 -10.890  0.0000E+00  0.2000E+01
 -10.880  0.0000E+00  0.2000E+01
 -10.870  0.0000E+00  0.2000E+01
 -10.860  0.0000E+00  0.2000E+01
 -10.850  0.0000E+00  0.2000E+01
 -10.840  0.0000E+00  0.2000E+01
 -10.830  0.0000E+00  0.2000E+01
 -10.820  0.0000E+00  0.2000E+01
 -10.810  0.0000E+00  0.2000E+01
 -10.800  0.0000E+00  0.2000E+01
 -10.790  0.0000E+00  0.2000E+01
 -10.780  0.0000E+00  0.2000E+01
 -10.770  0.0000E+00  0.2000E+01
 -10.760  0.0000E+00  0.2000E+01
 -10.750  0.0000E+00  0.2000E+01
 -10.740  0.0000E+00  0.2000E+01
 -10.730  0.0000E+00  0.2000E+01
 -10.720  0.0000E+00  0.2000E+01
 -10.710  0.0000E+00  0.2000E+01
 -10.700  0.0000E+00  0.2000E+01
 -10.690  0.0000E+00  0.2000E+01
 -10.680  0.0000E+00  0.2000E+01
 -10.670  0.0000E+00  0.2000E+01
 -10.660  0.0000E+00  0.2000E+01
 -10.650  0.0000E+00  0.2000E+01
 -10.640  0.0000E+00  0.2000E+01
 -10.630  0.0000E+00  0.2000E+01
 -10.620  0.0000E+00  0.2000E+01
 -10.610  0.0000E+00  0.2000E+01
 -10.600  0.0000E+00  0.2000E+01
 -10.590  0.0000E+00  0.2000E+01
 -10.580  0.0000E+00  0.2000E+01
 -10.570  0.0000E+00  0.2000E+01
 -10.560  0.0000E+00  0.2000E+01
 -10.550  0.0000E+00  0.2000E+01
 -10.540  0.0000E+00  0.2000E+01
 -10.530  0.0000E+00  0.2000E+01
 -10.520  0.0000E+00  0.2000E+01
 -10.510  0.0000E+00  0.2000E+01
 -10.500  0.0000E+00  0.2000E+01
 -10.490  0.0000E+00  0.2000E+01
 -10.480  0.0000E+00  0.2000E+01
 -10.470  0.0000E+00  0.2000E+01
 -10.460  0.0000E+00  0.2000E+01
 -10.450  0.0000E+00  0.2000E+01
 -10.440  0.0000E+00  0.2000E+01
 -10.430  0.0000E+00  0.2000E+01
 -10.420  0.0000E+00  0.2000E+01
 -10.410  0.0000E+00  0.2000E+01
 -10.400  0.0000E+00  0.2000E+01
 -10.390  0.0000E+00  0.2000E+01
 -10.380  0.0000E+00  0.2000E+01
 -10.370  0.0000E+00  0.2000E+01
 -10.360  0.0000E+00  0.2000E+01
 -10.350  0.0000E+00  0.2000E+01
 -10.340  0.0000E+00  0.2000E+01
 -10.330  0.0000E+00  0.2000E+01
 -10.320  0.0000E+00  0.2000E+01
 -10.310  0.0000E+00  0.2000E+01
 -10.300  0.0000E+00  0.2000E+01
 -10.290  0.0000E+00  0.2000E+01
 -10.280  0.0000E+00  0.2000E+01
 -10.270  0.0000E+00  0.2000E+01
 -10.260  0.0000E+00  0.2000E+01
 -10.250  0.0000E+00  0.2000E+01
 -10.240  0.0000E+00  0.2000E+01
 -10.230  0.0000E+00  0.2000E+01
 -10.220  0.0000E+00  0.2000E+01
 -10.210  0.0000E+00  0.2000E+01
 -10.200  0.0000E+00  0.2000E+01
 -10.190  0.0000E+00  0.2000E+01
 -10.180  0.0000E+00  0.2000E+01
 -10.170  0.0000E+00  0.2000E+01
 -10.160  0.0000E+00  0.2000E+01
 -10.150  0.0000E+00  0.2000E+01
 -10.140  0.0000E+00  0.2000E+01
 -10.130  0.0000E+00  0.2000E+01
 -10.120  0.0000E+00  0.2000E+01
 -10.110  0.0000E+00  0.2000E+01
 -10.100  0.0000E+00  0.2000E+01
 -10.090  0.0000E+00  0.2000E+01
 -10.080  0.0000E+00  0.2000E+01
 -10.070  0.0000E+00  0.2000E+01
 -10.060  0.0000E+00  0.2000E+01
 -10.050  0.0000E+00  0.2000E+01
 -10.040  0.0000E+00  0.2000E+01
 -10.030  0.0000E+00  0.2000E+01
 -10.020  0.0000E+00  0.2000E+01
 -10.010  0.0000E+00  0.2000E+01
 -10.000  0.0000E+00  0.2000E+01
  -9.990  0.0000E+00  0.2000E+01
  -9.980  0.0000E+00  0.2000E+01
  -9.970  0.0000E+00  0.2000E+01
  -9.960  0.0000E+00  0.2000E+01
  -9.950  0.0000E+00  0.2000E+01
  -9.940  0.0000E+00  0.2000E+01
  -9.930  0.0000E+00  0.2000E+01
  -9.920  0.0000E+00  0.2000E+01
  -9.910  0.0000E+00  0.2000E+01
  -9.900  0.0000E+00  0.2000E+01
  -9.890  0.0000E+00  0.2000E+01
  -9.880  0.0000E+00  0.2000E+01
  -9.870  0.0000E+00  0.2000E+01
  -9.860  0.0000E+00  0.2000E+01
  -9.850  0.0000E+00  0.2000E+01
  -9.840  0.0000E+00  0.2000E+01
  -9.830  0.0000E+00  0.2000E+01
  -9.820  0.0000E+00  0.2000E+01
  -9.810  0.0000E+00  0.2000E+01
  -9.800  0.0000E+00  0.2000E+01
  -9.790  0.0000E+00  0.2000E+01
  -9.780  0.0000E+00  0.2000E+01
  -9.770  0.0000E+00  0.2000E+01
  -9.760  0.0000E+00  0.2000E+01
  -9.750  0.0000E+00  0.2000E+01
  -9.740  0.0000E+00  0.2000E+01
  -9.730  0.0000E+00  0.2000E+01
  -9.720  0.3764E+01  0.2073E+01
  -9.710  0.3764E+01  0.2110E+01
  -9.700  0.2823E+01  0.2146E+01
  -9.690  0.1882E+01  0.2167E+01
  -9.680  0.1882E+01  0.2186E+01
  -9.670  0.1882E+01  0.2205E+01
  -9.660  0.1882E+01  0.2223E+01
  -9.650  0.1569E+01  0.2242E+01
  -9.640  0.1255E+01  0.2256E+01
  -9.630  0.1255E+01  0.2269E+01
  -9.620  0.1255E+01  0.2281E+01
  -9.610  0.1255E+01  0.2294E+01
  -9.600  0.1255E+01  0.2307E+01
  -9.590  0.1255E+01  0.2319E+01
  -9.580  0.1255E+01  0.2332E+01
  -9.570  0.1099E+01  0.2344E+01
  -9.560  0.9419E+00  0.2354E+01
  -9.550  0.9419E+00  0.2363E+01
  -9.540  0.9419E+00  0.2373E+01
  -9.530  0.9419E+00  0.2382E+01
  -9.520  0.9419E+00  0.2392E+01
  -9.510  0.9419E+00  0.2401E+01
  -9.500  0.9419E+00  0.2411E+01
  -9.490  0.9419E+00  0.2420E+01
  -9.480  0.9419E+00  0.2429E+01
  -9.470  0.9419E+00  0.2439E+01
  -9.460  0.7539E+00  0.2447E+01
  -9.450  0.7539E+00  0.2455E+01
  -9.440  0.7539E+00  0.2463E+01
  -9.430  0.7539E+00  0.2470E+01
  -9.420  0.7539E+00  0.2478E+01
  -9.410  0.7539E+00  0.2485E+01
  -9.400  0.7539E+00  0.2493E+01
  -9.390  0.7539E+00  0.2500E+01
  -9.380  0.7539E+00  0.2508E+01
  -9.370  0.7539E+00  0.2515E+01
  -9.360  0.7539E+00  0.2523E+01
  -9.350  0.7539E+00  0.2530E+01
  -9.340  0.7539E+00  0.2538E+01
  -9.330  0.6287E+00  0.2545E+01
  -9.320  0.6287E+00  0.2551E+01
  -9.310  0.6287E+00  0.2558E+01
  -9.300  0.6287E+00  0.2564E+01
  -9.290  0.6287E+00  0.2570E+01
  -9.280  0.6287E+00  0.2577E+01
  -9.270  0.6287E+00  0.2583E+01
  -9.260  0.6287E+00  0.2589E+01
  -9.250  0.6287E+00  0.2595E+01
  -9.240  0.6287E+00  0.2602E+01
  -9.230  0.6287E+00  0.2608E+01
  -9.220  0.6287E+00  0.2614E+01
  -9.210  0.6287E+00  0.2621E+01
  -9.200  0.6287E+00  0.2627E+01
  -9.190  0.6287E+00  0.2633E+01
  -9.180  0.6287E+00  0.2639E+01
  -9.170  0.5393E+00  0.2645E+01
  -9.160  0.5393E+00  0.2651E+01
  -9.150  0.5393E+00  0.2656E+01
  -9.140  0.5393E+00  0.2661E+01
  -9.130  0.5393E+00  0.2667E+01
  -9.120  0.5393E+00  0.2672E+01
  -9.110  0.5393E+00  0.2678E+01
  -9.100  0.5393E+00  0.2683E+01
  -9.090  0.5393E+00  0.2688E+01
  -9.080  0.5393E+00  0.2694E+01
  -9.070  0.5393E+00  0.2699E+01
  -9.060  0.5393E+00  0.2704E+01
  -9.050  0.5393E+00  0.2710E+01
  -9.040  0.5393E+00  0.2715E+01
  -9.030  0.5393E+00  0.2721E+01
  -9.020  0.5393E+00  0.2726E+01
  -9.010  0.5393E+00  0.2731E+01
  -9.000  0.5393E+00  0.2737E+01
  -8.990  0.5058E+00  0.2742E+01
  -8.980  0.4724E+00  0.2747E+01
  -8.970  0.4724E+00  0.2751E+01
  -8.960  0.4724E+00  0.2756E+01
  -8.950  0.4724E+00  0.2761E+01
  -8.940  0.4724E+00  0.2766E+01
  -8.930  0.4724E+00  0.2770E+01
  -8.920  0.4724E+00  0.2775E+01
  -8.910  0.4724E+00  0.2780E+01
  -8.900  0.4724E+00  0.2785E+01
  -8.890  0.4724E+00  0.2789E+01
  -8.880  0.4724E+00  0.2794E+01
  -8.870  0.4724E+00  0.2799E+01
  -8.860  0.4724E+00  0.2803E+01
  -8.850  0.4724E+00  0.2808E+01
  -8.840  0.4724E+00  0.2813E+01
  -8.830  0.4724E+00  0.2818E+01
  -8.820  0.4724E+00  0.2822E+01
  -8.810  0.4724E+00  0.2827E+01
  -8.800  0.4724E+00  0.2832E+01
  -8.790  0.4724E+00  0.2837E+01
  -8.780  0.4204E+00  0.2841E+01
  -8.770  0.4204E+00  0.2845E+01
  -8.760  0.4204E+00  0.2849E+01
  -8.750  0.4204E+00  0.2854E+01
  -8.740  0.4204E+00  0.2858E+01
  -8.730  0.4204E+00  0.2862E+01
  -8.720  0.4204E+00  0.2866E+01
  -8.710  0.4204E+00  0.2870E+01
  -8.700  0.4204E+00  0.2875E+01
  -8.690  0.4204E+00  0.2879E+01
  -8.680  0.4204E+00  0.2883E+01
  -8.670  0.4204E+00  0.2887E+01
  -8.660  0.4204E+00  0.2891E+01
  -8.650  0.4204E+00  0.2896E+01
  -8.640  0.4204E+00  0.2900E+01
  -8.630  0.4204E+00  0.2904E+01
  -8.620  0.4204E+00  0.2908E+01
  -8.610  0.4204E+00  0.2913E+01
  -8.600  0.4204E+00  0.2917E+01
  -8.590  0.4204E+00  0.2921E+01
  -8.580  0.4204E+00  0.2925E+01
  -8.570  0.4204E+00  0.2929E+01
  -8.560  0.4204E+00  0.2934E+01
  -8.550  0.3996E+00  0.2938E+01
  -8.540  0.3788E+00  0.2942E+01
  -8.530  0.3788E+00  0.2945E+01
  -8.520  0.3788E+00  0.2949E+01
  -8.510  0.3788E+00  0.2953E+01
  -8.500  0.3788E+00  0.2957E+01
  -8.490  0.3788E+00  0.2961E+01
  -8.480  0.3788E+00  0.2964E+01
  -8.470  0.3788E+00  0.2968E+01
  -8.460  0.3788E+00  0.2972E+01
  -8.450  0.3788E+00  0.2976E+01
  -8.440  0.3788E+00  0.2979E+01
  -8.430  0.3788E+00  0.2983E+01
  -8.420  0.3788E+00  0.2987E+01
  -8.410  0.3788E+00  0.2991E+01
  -8.400  0.3788E+00  0.2995E+01
  -8.390  0.3788E+00  0.2998E+01
  -8.380  0.3788E+00  0.3002E+01
  -8.370  0.3788E+00  0.3006E+01
  -8.360  0.3788E+00  0.3010E+01
  -8.350  0.3788E+00  0.3014E+01
  -8.340  0.3788E+00  0.3017E+01
  -8.330  0.3788E+00  0.3021E+01
  -8.320  0.3788E+00  0.3025E+01
  -8.310  0.3788E+00  0.3029E+01
  -8.300  0.3788E+00  0.3032E+01
  -8.290  0.3619E+00  0.3036E+01
  -8.280  0.3449E+00  0.3040E+01
  -8.270  0.3449E+00  0.3043E+01
  -8.260  0.3449E+00  0.3047E+01
  -8.250  0.3449E+00  0.3050E+01
  -8.240  0.3449E+00  0.3054E+01
  -8.230  0.3449E+00  0.3057E+01
  -8.220  0.3449E+00  0.3060E+01
  -8.210  0.3449E+00  0.3064E+01
  -8.200  0.3449E+00  0.3067E+01
  -8.190  0.3449E+00  0.3071E+01
  -8.180  0.3449E+00  0.3074E+01
  -8.170  0.3449E+00  0.3078E+01
  -8.160  0.3449E+00  0.3081E+01
  -8.150  0.3449E+00  0.3085E+01
  -8.140  0.3449E+00  0.3088E+01
  -8.130  0.3449E+00  0.3092E+01
  -8.120  0.3449E+00  0.3095E+01
  -8.110  0.3449E+00  0.3098E+01
  -8.100  0.3449E+00  0.3102E+01
  -8.090  0.3449E+00  0.3105E+01
  -8.080  0.3449E+00  0.3109E+01
  -8.070  0.3449E+00  0.3112E+01
  -8.060  0.3449E+00  0.3116E+01
  -8.050  0.3449E+00  0.3119E+01
  -8.040  0.3449E+00  0.3123E+01
  -8.030  0.3449E+00  0.3126E+01
  -8.020  0.3449E+00  0.3129E+01
  -8.010  0.3449E+00  0.3133E+01
  -8.000  0.3308E+00  0.3136E+01
  -7.990  0.3167E+00  0.3139E+01
  -7.980  0.3167E+00  0.3143E+01
  -7.970  0.3167E+00  0.3146E+01
  -7.960  0.3167E+00  0.3149E+01
  -7.950  0.3167E+00  0.3152E+01
  -7.940  0.3167E+00  0.3155E+01
  -7.930  0.3167E+00  0.3158E+01
  -7.920  0.3167E+00  0.3162E+01
  -7.910  0.3167E+00  0.3165E+01
  -7.900  0.3167E+00  0.3168E+01
  -7.890  0.3167E+00  0.3171E+01
  -7.880  0.3167E+00  0.3174E+01
  -7.870  0.3167E+00  0.3177E+01
  -7.860  0.3167E+00  0.3181E+01
  -7.850  0.3167E+00  0.3184E+01
  -7.840  0.3167E+00  0.3187E+01
  -7.830  0.3167E+00  0.3190E+01
  -7.820  0.3167E+00  0.3193E+01
  -7.810  0.3167E+00  0.3196E+01
  -7.800  0.3167E+00  0.3200E+01
  -7.790  0.3167E+00  0.3203E+01
  -7.780  0.3167E+00  0.3206E+01
  -7.770  0.3167E+00  0.3209E+01
  -7.760  0.3167E+00  0.3212E+01
  -7.750  0.3167E+00  0.3215E+01
  -7.740  0.3167E+00  0.3219E+01
  -7.730  0.3167E+00  0.3222E+01
  -7.720  0.3167E+00  0.3225E+01
  -7.710  0.3167E+00  0.3228E+01
  -7.700  0.3167E+00  0.3231E+01
  -7.690  0.3048E+00  0.3234E+01
  -7.680  0.2929E+00  0.3237E+01
  -7.670  0.2929E+00  0.3240E+01
  -7.660  0.2929E+00  0.3243E+01
  -7.650  0.2929E+00  0.3246E+01
  -7.640  0.2929E+00  0.3249E+01
  -7.630  0.2929E+00  0.3252E+01
  -7.620  0.2929E+00  0.3255E+01
  -7.610  0.2929E+00  0.3258E+01
  -7.600  0.2929E+00  0.3261E+01
  -7.590  0.2929E+00  0.3264E+01
  -7.580  0.2929E+00  0.3267E+01
  -7.570  0.2929E+00  0.3270E+01
  -7.560  0.2929E+00  0.3273E+01
  -7.550  0.2929E+00  0.3276E+01
  -7.540  0.2929E+00  0.3278E+01
  -7.530  0.2929E+00  0.3281E+01
  -7.520  0.2929E+00  0.3284E+01
  -7.510  0.2929E+00  0.3287E+01
  -7.500  0.2929E+00  0.3290E+01
  -7.490  0.2929E+00  0.3293E+01
  -7.480  0.2929E+00  0.3296E+01
  -7.470  0.2929E+00  0.3299E+01
  -7.460  0.2929E+00  0.3302E+01
  -7.450  0.2929E+00  0.3305E+01
  -7.440  0.2929E+00  0.3308E+01
  -7.430  0.2929E+00  0.3311E+01
  -7.420  0.2929E+00  0.3314E+01
  -7.410  0.2929E+00  0.3317E+01
  -7.400  0.2929E+00  0.3319E+01
  -7.390  0.2929E+00  0.3322E+01
  -7.380  0.2929E+00  0.3325E+01
  -7.370  0.2929E+00  0.3328E+01
  -7.360  0.2929E+00  0.3331E+01
  -7.350  0.2828E+00  0.3334E+01
  -7.340  0.2726E+00  0.3337E+01
  -7.330  0.2726E+00  0.3339E+01
  -7.320  0.2726E+00  0.3342E+01
  -7.310  0.2726E+00  0.3345E+01
  -7.300  0.2726E+00  0.3348E+01
  -7.290  0.2726E+00  0.3350E+01
  -7.280  0.2726E+00  0.3353E+01
  -7.270  0.2726E+00  0.3356E+01
  -7.260  0.2726E+00  0.3359E+01
  -7.250  0.2726E+00  0.3361E+01
  -7.240  0.2726E+00  0.3364E+01
  -7.230  0.2726E+00  0.3367E+01
  -7.220  0.2726E+00  0.3369E+01
  -7.210  0.2726E+00  0.3372E+01
  -7.200  0.2726E+00  0.3375E+01
  -7.190  0.2726E+00  0.3378E+01
  -7.180  0.2726E+00  0.3380E+01
  -7.170  0.2726E+00  0.3383E+01
  -7.160  0.2726E+00  0.3386E+01
  -7.150  0.2726E+00  0.3389E+01
  -7.140  0.2726E+00  0.3391E+01
  -7.130  0.2726E+00  0.3394E+01
  -7.120  0.2726E+00  0.3397E+01
  -7.110  0.2726E+00  0.3399E+01
  -7.100  0.2726E+00  0.3402E+01
  -7.090  0.2726E+00  0.3405E+01
  -7.080  0.2726E+00  0.3408E+01
  -7.070  0.2726E+00  0.3410E+01
  -7.060  0.2726E+00  0.3413E+01
  -7.050  0.2726E+00  0.3416E+01
  -7.040  0.2726E+00  0.3419E+01
  -7.030  0.2726E+00  0.3421E+01
  -7.020  0.2726E+00  0.3424E+01
  -7.010  0.2726E+00  0.3427E+01
  -7.000  0.2726E+00  0.3429E+01
  -6.990  0.2638E+00  0.3432E+01
  -6.980  0.2551E+00  0.3435E+01
  -6.970  0.2551E+00  0.3437E+01
  -6.960  0.2551E+00  0.3440E+01
  -6.950  0.2551E+00  0.3442E+01
  -6.940  0.2551E+00  0.3445E+01
  -6.930  0.2551E+00  0.3447E+01
  -6.920  0.2551E+00  0.3450E+01
  -6.910  0.2551E+00  0.3453E+01
  -6.900  0.2551E+00  0.3455E+01
  -6.890  0.2551E+00  0.3458E+01
  -6.880  0.2551E+00  0.3460E+01
  -6.870  0.2551E+00  0.3463E+01
  -6.860  0.2551E+00  0.3465E+01
  -6.850  0.2551E+00  0.3468E+01
  -6.840  0.2551E+00  0.3470E+01
  -6.830  0.2551E+00  0.3473E+01
  -6.820  0.2551E+00  0.3476E+01
  -6.810  0.2551E+00  0.3478E+01
  -6.800  0.2551E+00  0.3481E+01
  -6.790  0.2551E+00  0.3483E+01
  -6.780  0.2551E+00  0.3486E+01
  -6.770  0.2551E+00  0.3488E+01
  -6.760  0.2551E+00  0.3491E+01
  -6.750  0.2551E+00  0.3493E+01
  -6.740  0.2551E+00  0.3496E+01
  -6.730  0.2551E+00  0.3498E+01
  -6.720  0.2551E+00  0.3501E+01
  -6.710  0.2551E+00  0.3504E+01
  -6.700  0.2551E+00  0.3506E+01
  -6.690  0.2551E+00  0.3509E+01
  -6.680  0.2551E+00  0.3511E+01
  -6.670  0.2551E+00  0.3514E+01
  -6.660  0.2551E+00  0.3516E+01
  -6.650  0.2551E+00  0.3519E+01
  -6.640  0.2551E+00  0.3521E+01
  -6.630  0.2551E+00  0.3524E+01
  -6.620  0.2551E+00  0.3527E+01
  -6.610  0.2551E+00  0.3529E+01
  -6.600  0.2398E+00  0.3532E+01
  -6.590  0.2398E+00  0.3534E+01
  -6.580  0.2398E+00  0.3536E+01
  -6.570  0.2398E+00  0.3539E+01
  -6.560  0.2398E+00  0.3541E+01
  -6.550  0.2398E+00  0.3544E+01
  -6.540  0.2398E+00  0.3546E+01
  -6.530  0.2398E+00  0.3548E+01
  -6.520  0.2398E+00  0.3551E+01
  -6.510  0.2398E+00  0.3553E+01
  -6.500  0.2398E+00  0.3556E+01
  -6.490  0.2398E+00  0.3558E+01
  -6.480  0.2398E+00  0.3560E+01
  -6.470  0.2398E+00  0.3563E+01
  -6.460  0.2398E+00  0.3565E+01
  -6.450  0.2398E+00  0.3568E+01
  -6.440  0.2398E+00  0.3570E+01
  -6.430  0.2398E+00  0.3572E+01
  -6.420  0.2398E+00  0.3575E+01
  -6.410  0.2398E+00  0.3577E+01
  -6.400  0.2398E+00  0.3580E+01
  -6.390  0.2398E+00  0.3582E+01
  -6.380  0.2398E+00  0.3584E+01
  -6.370  0.2398E+00  0.3587E+01
  -6.360  0.2398E+00  0.3589E+01
  -6.350  0.2398E+00  0.3592E+01
  -6.340  0.2398E+00  0.3594E+01
  -6.330  0.2398E+00  0.3596E+01
  -6.320  0.2398E+00  0.3599E+01
  -6.310  0.2398E+00  0.3601E+01
  -6.300  0.2398E+00  0.3604E+01
  -6.290  0.2398E+00  0.3606E+01
  -6.280  0.2398E+00  0.3608E+01
  -6.270  0.2398E+00  0.3611E+01
  -6.260  0.2398E+00  0.3613E+01
  -6.250  0.2398E+00  0.3616E+01
  -6.240  0.2398E+00  0.3618E+01
  -6.230  0.2398E+00  0.3620E+01
  -6.220  0.2398E+00  0.3623E+01
  -6.210  0.2398E+00  0.3625E+01
  -6.200  0.2398E+00  0.3628E+01
  -6.190  0.2331E+00  0.3630E+01
  -6.180  0.2264E+00  0.3632E+01
  -6.170  0.2264E+00  0.3634E+01
  -6.160  0.2264E+00  0.3637E+01
  -6.150  0.2264E+00  0.3639E+01
  -6.140  0.2264E+00  0.3641E+01
  -6.130  0.2264E+00  0.3643E+01
  -6.120  0.2264E+00  0.3646E+01
  -6.110  0.2264E+00  0.3648E+01
  -6.100  0.2264E+00  0.3650E+01
  -6.090  0.2264E+00  0.3653E+01
  -6.080  0.2264E+00  0.3655E+01
  -6.070  0.2264E+00  0.3657E+01
  -6.060  0.2264E+00  0.3659E+01
  -6.050  0.2264E+00  0.3662E+01
  -6.040  0.2264E+00  0.3664E+01
  -6.030  0.2264E+00  0.3666E+01
  -6.020  0.2264E+00  0.3668E+01
  -6.010  0.2264E+00  0.3671E+01
  -6.000  0.2264E+00  0.3673E+01
  -5.990  0.2264E+00  0.3675E+01
  -5.980  0.2264E+00  0.3677E+01
  -5.970  0.2264E+00  0.3680E+01
  -5.960  0.2264E+00  0.3682E+01
  -5.950  0.2264E+00  0.3684E+01
  -5.940  0.2264E+00  0.3687E+01
  -5.930  0.2264E+00  0.3689E+01
  -5.920  0.2264E+00  0.3691E+01
  -5.910  0.2264E+00  0.3693E+01
  -5.900  0.2264E+00  0.3696E+01
  -5.890  0.2264E+00  0.3698E+01
  -5.880  0.2264E+00  0.3700E+01
  -5.870  0.2264E+00  0.3702E+01
  -5.860  0.2264E+00  0.3705E+01
  -5.850  0.2264E+00  0.3707E+01
  -5.840  0.2264E+00  0.3709E+01
  -5.830  0.2264E+00  0.3711E+01
  -5.820  0.2264E+00  0.3714E+01
  -5.810  0.2264E+00  0.3716E+01
  -5.800  0.2264E+00  0.3718E+01
  -5.790  0.2264E+00  0.3720E+01
  -5.780  0.2264E+00  0.3723E+01
  -5.770  0.2264E+00  0.3725E+01
  -5.760  0.2264E+00  0.3727E+01
  -5.750  0.2146E+00  0.3729E+01
  -5.740  0.2146E+00  0.3732E+01
  -5.730  0.2146E+00  0.3734E+01
  -5.720  0.2146E+00  0.3736E+01
  -5.710  0.2146E+00  0.3738E+01
  -5.700  0.2146E+00  0.3740E+01
  -5.690  0.2146E+00  0.3742E+01
  -5.680  0.2146E+00  0.3744E+01
  -5.670  0.2146E+00  0.3747E+01
  -5.660  0.2146E+00  0.3749E+01
  -5.650  0.2146E+00  0.3751E+01
  -5.640  0.2146E+00  0.3753E+01
  -5.630  0.2146E+00  0.3755E+01
  -5.620  0.2146E+00  0.3757E+01
  -5.610  0.2146E+00  0.3760E+01
  -5.600  0.2146E+00  0.3762E+01
  -5.590  0.2146E+00  0.3764E+01
  -5.580  0.2146E+00  0.3766E+01
  -5.570  0.2146E+00  0.3768E+01
  -5.560  0.2146E+00  0.3770E+01
  -5.550  0.2146E+00  0.3772E+01
  -5.540  0.2146E+00  0.3775E+01
  -5.530  0.2146E+00  0.3777E+01
  -5.520  0.2146E+00  0.3779E+01
  -5.510  0.2146E+00  0.3781E+01
  -5.500  0.2146E+00  0.3783E+01
  -5.490  0.2146E+00  0.3785E+01
  -5.480  0.2146E+00  0.3787E+01
  -5.470  0.2146E+00  0.3790E+01
  -5.460  0.2146E+00  0.3792E+01
  -5.450  0.2146E+00  0.3794E+01
  -5.440  0.2146E+00  0.3796E+01
  -5.430  0.2146E+00  0.3798E+01
  -5.420  0.2146E+00  0.3800E+01
  -5.410  0.2146E+00  0.3802E+01
  -5.400  0.2146E+00  0.3805E+01
  -5.390  0.2146E+00  0.3807E+01
  -5.380  0.2146E+00  0.3809E+01
  -5.370  0.2146E+00  0.3811E+01
  -5.360  0.2146E+00  0.3813E+01
  -5.350  0.2146E+00  0.3815E+01
  -5.340  0.2146E+00  0.3817E+01
  -5.330  0.2146E+00  0.3820E+01
  -5.320  0.2146E+00  0.3822E+01
  -5.310  0.2146E+00  0.3824E+01
  -5.300  0.2146E+00  0.3826E+01
  -5.290  0.2041E+00  0.3828E+01
  -5.280  0.2041E+00  0.3830E+01
  -5.270  0.2041E+00  0.3832E+01
  -5.260  0.2041E+00  0.3834E+01
  -5.250  0.2041E+00  0.3836E+01
  -5.240  0.2041E+00  0.3838E+01
  -5.230  0.2041E+00  0.3840E+01
  -5.220  0.2041E+00  0.3842E+01
  -5.210  0.2041E+00  0.3844E+01
  -5.200  0.2041E+00  0.3847E+01
  -5.190  0.2041E+00  0.3849E+01
  -5.180  0.2041E+00  0.3851E+01
  -5.170  0.2041E+00  0.3853E+01
  -5.160  0.2041E+00  0.3855E+01
  -5.150  0.2041E+00  0.3857E+01
  -5.140  0.2041E+00  0.3859E+01
  -5.130  0.2041E+00  0.3861E+01
  -5.120  0.2041E+00  0.3863E+01
  -5.110  0.2041E+00  0.3865E+01
  -5.100  0.2041E+00  0.3867E+01
  -5.090  0.2041E+00  0.3869E+01
  -5.080  0.2041E+00  0.3871E+01
  -5.070  0.2041E+00  0.3873E+01
  -5.060  0.2041E+00  0.3875E+01
  -5.050  0.2041E+00  0.3877E+01
  -5.040  0.2041E+00  0.3879E+01
  -5.030  0.2041E+00  0.3881E+01
  -5.020  0.2041E+00  0.3883E+01
  -5.010  0.2041E+00  0.3885E+01
  -5.000  0.2041E+00  0.3887E+01
  -4.990  0.2041E+00  0.3889E+01
  -4.980  0.2041E+00  0.3891E+01
  -4.970  0.2041E+00  0.3893E+01
  -4.960  0.2041E+00  0.3896E+01
  -4.950  0.2041E+00  0.3898E+01
  -4.940  0.2041E+00  0.3900E+01
  -4.930  0.2041E+00  0.3902E+01
  -4.920  0.2041E+00  0.3904E+01
  -4.910  0.2041E+00  0.3906E+01
  -4.900  0.2041E+00  0.3908E+01
  -4.890  0.2041E+00  0.3910E+01
  -4.880  0.2041E+00  0.3912E+01
  -4.870  0.2041E+00  0.3914E+01
  -4.860  0.2041E+00  0.3916E+01
  -4.850  0.2041E+00  0.3918E+01
  -4.840  0.2041E+00  0.3920E+01
  -4.830  0.2041E+00  0.3922E+01
  -4.820  0.2041E+00  0.3924E+01
  -4.810  0.1995E+00  0.3926E+01
  -4.800  0.1949E+00  0.3928E+01
  -4.790  0.1949E+00  0.3930E+01
  -4.780  0.1949E+00  0.3932E+01
  -4.770  0.1949E+00  0.3934E+01
  -4.760  0.1949E+00  0.3936E+01
  -4.750  0.1949E+00  0.3938E+01
  -4.740  0.1949E+00  0.3940E+01
  -4.730  0.1949E+00  0.3942E+01
  -4.720  0.1949E+00  0.3944E+01
  -4.710  0.1949E+00  0.3946E+01
  -4.700  0.1949E+00  0.3948E+01
  -4.690  0.1949E+00  0.3949E+01
  -4.680  0.1949E+00  0.3951E+01
  -4.670  0.1949E+00  0.3953E+01
  -4.660  0.1949E+00  0.3955E+01
  -4.650  0.1949E+00  0.3957E+01
  -4.640  0.1949E+00  0.3959E+01
  -4.630  0.1949E+00  0.3961E+01
  -4.620  0.1949E+00  0.3963E+01
  -4.610  0.1949E+00  0.3965E+01
  -4.600  0.1949E+00  0.3967E+01
  -4.590  0.1949E+00  0.3969E+01
  -4.580  0.1949E+00  0.3971E+01
  -4.570  0.1949E+00  0.3973E+01
  -4.560  0.1949E+00  0.3975E+01
  -4.550  0.1949E+00  0.3977E+01
  -4.540  0.1949E+00  0.3979E+01
  -4.530  0.1949E+00  0.3981E+01
  -4.520  0.1949E+00  0.3983E+01
  -4.510  0.1949E+00  0.3985E+01
  -4.500  0.1949E+00  0.3987E+01
  -4.490  0.1949E+00  0.3988E+01
  -4.480  0.1949E+00  0.3990E+01
  -4.470  0.1949E+00  0.3992E+01
  -4.460  0.1949E+00  0.3994E+01
  -4.450  0.1949E+00  0.3996E+01
  -4.440  0.1949E+00  0.3998E+01
  -4.430  0.1949E+00  0.4000E+01
  -4.420  0.1949E+00  0.4002E+01
  -4.410  0.1949E+00  0.4004E+01
  -4.400  0.1949E+00  0.4006E+01
  -4.390  0.1949E+00  0.4008E+01
  -4.380  0.1949E+00  0.4010E+01
  -4.370  0.1949E+00  0.4012E+01
  -4.360  0.1949E+00  0.4014E+01
  -4.350  0.1949E+00  0.4016E+01
  -4.340  0.1949E+00  0.4018E+01
  -4.330  0.1949E+00  0.4020E+01
  -4.320  0.1949E+00  0.4022E+01
  -4.310  0.1949E+00  0.4024E+01
  -4.300  0.1866E+00  0.4025E+01
  -4.290  0.1866E+00  0.4027E+01
  -4.280  0.1866E+00  0.4029E+01
  -4.270  0.1866E+00  0.4031E+01
  -4.260  0.1866E+00  0.4033E+01
  -4.250  0.1866E+00  0.4035E+01
  -4.240  0.1866E+00  0.4037E+01
  -4.230  0.1866E+00  0.4039E+01
  -4.220  0.1866E+00  0.4040E+01
  -4.210  0.1866E+00  0.4042E+01
  -4.200  0.1866E+00  0.4044E+01
  -4.190  0.1866E+00  0.4046E+01
  -4.180  0.1866E+00  0.4048E+01
  -4.170  0.1866E+00  0.4050E+01
  -4.160  0.1866E+00  0.4052E+01
  -4.150  0.1866E+00  0.4053E+01
  -4.140  0.1866E+00  0.4055E+01
  -4.130  0.1866E+00  0.4057E+01
  -4.120  0.1866E+00  0.4059E+01
  -4.110  0.1866E+00  0.4061E+01
  -4.100  0.1866E+00  0.4063E+01
  -4.090  0.1866E+00  0.4065E+01
  -4.080  0.1866E+00  0.4067E+01
  -4.070  0.1866E+00  0.4068E+01
  -4.060  0.1866E+00  0.4070E+01
  -4.050  0.1866E+00  0.4072E+01
  -4.040  0.1866E+00  0.4074E+01
  -4.030  0.1866E+00  0.4076E+01
  -4.020  0.1866E+00  0.4078E+01
  -4.010  0.1866E+00  0.4080E+01
  -4.000  0.1866E+00  0.4081E+01
  -3.990  0.1866E+00  0.4083E+01
  -3.980  0.1866E+00  0.4085E+01
  -3.970  0.1866E+00  0.4087E+01
  -3.960  0.1866E+00  0.4089E+01
  -3.950  0.1866E+00  0.4091E+01
  -3.940  0.1866E+00  0.4093E+01
  -3.930  0.1866E+00  0.4094E+01
  -3.920  0.1866E+00  0.4096E+01
  -3.910  0.1866E+00  0.4098E+01
  -3.900  0.1866E+00  0.4100E+01
  -3.890  0.1866E+00  0.4102E+01
  -3.880  0.1866E+00  0.4104E+01
  -3.870  0.1866E+00  0.4106E+01
  -3.860  0.1866E+00  0.4108E+01
  -3.850  0.1866E+00  0.4109E+01
  -3.840  0.1866E+00  0.4111E+01
  -3.830  0.1866E+00  0.4113E+01
  -3.820  0.1866E+00  0.4115E+01
  -3.810  0.1866E+00  0.4117E+01
  -3.800  0.1866E+00  0.4119E+01
  -3.790  0.1866E+00  0.4121E+01
  -3.780  0.1866E+00  0.4122E+01
  -3.770  0.1792E+00  0.4124E+01
  -3.760  0.1792E+00  0.4126E+01
  -3.750  0.1792E+00  0.4128E+01
  -3.740  0.1792E+00  0.4130E+01
  -3.730  0.1792E+00  0.4131E+01
  -3.720  0.1792E+00  0.4133E+01
  -3.710  0.1792E+00  0.4135E+01
  -3.700  0.1792E+00  0.4137E+01
  -3.690  0.1792E+00  0.4139E+01
  -3.680  0.1792E+00  0.4140E+01
  -3.670  0.1792E+00  0.4142E+01
  -3.660  0.1792E+00  0.4144E+01
  -3.650  0.1792E+00  0.4146E+01
  -3.640  0.1792E+00  0.4148E+01
  -3.630  0.1792E+00  0.4149E+01
  -3.620  0.1792E+00  0.4151E+01
  -3.610  0.1792E+00  0.4153E+01
  -3.600  0.1792E+00  0.4155E+01
  -3.590  0.1792E+00  0.4157E+01
  -3.580  0.1792E+00  0.4158E+01
  -3.570  0.1792E+00  0.4160E+01
  -3.560  0.1792E+00  0.4162E+01
  -3.550  0.1792E+00  0.4164E+01
  -3.540  0.1792E+00  0.4166E+01
  -3.530  0.1792E+00  0.4167E+01
  -3.520  0.1792E+00  0.4169E+01
  -3.510  0.1792E+00  0.4171E+01
  -3.500  0.1792E+00  0.4173E+01
  -3.490  0.1792E+00  0.4174E+01
  -3.480  0.1792E+00  0.4176E+01
  -3.470  0.1792E+00  0.4178E+01
  -3.460  0.1792E+00  0.4180E+01
  -3.450  0.1792E+00  0.4182E+01
  -3.440  0.1792E+00  0.4183E+01
  -3.430  0.1792E+00  0.4185E+01
  -3.420  0.1792E+00  0.4187E+01
  -3.410  0.1792E+00  0.4189E+01
  -3.400  0.1792E+00  0.4191E+01
  -3.390  0.1792E+00  0.4192E+01
  -3.380  0.1792E+00  0.4194E+01
  -3.370  0.1792E+00  0.4196E+01
  -3.360  0.1792E+00  0.4198E+01
  -3.350  0.1792E+00  0.4200E+01
  -3.340  0.1792E+00  0.4201E+01
  -3.330  0.1792E+00  0.4203E+01
  -3.320  0.1792E+00  0.4205E+01
  -3.310  0.1792E+00  0.4207E+01
  -3.300  0.1792E+00  0.4209E+01
  -3.290  0.1792E+00  0.4210E+01
  -3.280  0.1792E+00  0.4212E+01
  -3.270  0.1792E+00  0.4214E+01
  -3.260  0.1792E+00  0.4216E+01
  -3.250  0.1792E+00  0.4217E+01
  -3.240  0.1792E+00  0.4219E+01
  -3.230  0.1792E+00  0.4221E+01
  -3.220  0.1726E+00  0.4223E+01
  -3.210  0.1726E+00  0.4225E+01
  -3.200  0.1726E+00  0.4226E+01
  -3.190  0.1726E+00  0.4228E+01
  -3.180  0.1726E+00  0.4230E+01
  -3.170  0.1726E+00  0.4231E+01
  -3.160  0.1726E+00  0.4233E+01
  -3.150  0.1726E+00  0.4235E+01
  -3.140  0.1726E+00  0.4237E+01
  -3.130  0.1726E+00  0.4238E+01
  -3.120  0.1726E+00  0.4240E+01
  -3.110  0.1726E+00  0.4242E+01
  -3.100  0.1726E+00  0.4244E+01
  -3.090  0.1726E+00  0.4245E+01
  -3.080  0.1726E+00  0.4247E+01
  -3.070  0.1726E+00  0.4249E+01
  -3.060  0.1726E+00  0.4250E+01
  -3.050  0.1726E+00  0.4252E+01
  -3.040  0.1726E+00  0.4254E+01
  -3.030  0.1726E+00  0.4256E+01
  -3.020  0.1726E+00  0.4257E+01
  -3.010  0.1726E+00  0.4259E+01
  -3.000  0.1726E+00  0.4261E+01
  -2.990  0.1726E+00  0.4263E+01
  -2.980  0.1726E+00  0.4264E+01
  -2.970  0.1726E+00  0.4266E+01
  -2.960  0.1726E+00  0.4268E+01
  -2.950  0.1726E+00  0.4269E+01
  -2.940  0.1726E+00  0.4271E+01
  -2.930  0.1726E+00  0.4273E+01
  -2.920  0.1726E+00  0.4275E+01
  -2.910  0.1726E+00  0.4276E+01
  -2.900  0.1726E+00  0.4278E+01
  -2.890  0.1726E+00  0.4280E+01
  -2.880  0.1726E+00  0.4282E+01
  -2.870  0.1726E+00  0.4283E+01
  -2.860  0.1726E+00  0.4285E+01
  -2.850  0.1726E+00  0.4287E+01
  -2.840  0.1726E+00  0.4288E+01
  -2.830  0.1726E+00  0.4290E+01
  -2.820  0.1726E+00  0.4292E+01
  -2.810  0.1726E+00  0.4294E+01
  -2.800  0.1726E+00  0.4295E+01
  -2.790  0.1726E+00  0.4297E+01
  -2.780  0.1726E+00  0.4299E+01
  -2.770  0.1726E+00  0.4301E+01
  -2.760  0.1726E+00  0.4302E+01
  -2.750  0.1726E+00  0.4304E+01
  -2.740  0.1726E+00  0.4306E+01
  -2.730  0.1726E+00  0.4307E+01
  -2.720  0.1726E+00  0.4309E+01
  -2.710  0.1726E+00  0.4311E+01
  -2.700  0.1726E+00  0.4313E+01
  -2.690  0.1726E+00  0.4314E+01
  -2.680  0.1726E+00  0.4316E+01
  -2.670  0.1726E+00  0.4318E+01
  -2.660  0.1726E+00  0.4320E+01
  -2.650  0.1697E+00  0.4321E+01
  -2.640  0.1668E+00  0.4323E+01
  -2.630  0.1668E+00  0.4325E+01
  -2.620  0.1668E+00  0.4326E+01
  -2.610  0.1668E+00  0.4328E+01
  -2.600  0.1668E+00  0.4330E+01
  -2.590  0.1668E+00  0.4331E+01
  -2.580  0.1668E+00  0.4333E+01
  -2.570  0.1668E+00  0.4335E+01
  -2.560  0.1668E+00  0.4336E+01
  -2.550  0.1668E+00  0.4338E+01
  -2.540  0.1668E+00  0.4340E+01
  -2.530  0.1668E+00  0.4341E+01
  -2.520  0.1668E+00  0.4343E+01
  -2.510  0.1668E+00  0.4345E+01
  -2.500  0.1668E+00  0.4346E+01
  -2.490  0.1668E+00  0.4348E+01
  -2.480  0.1668E+00  0.4350E+01
  -2.470  0.1668E+00  0.4351E+01
  -2.460  0.1668E+00  0.4353E+01
  -2.450  0.1668E+00  0.4355E+01
  -2.440  0.1668E+00  0.4356E+01
  -2.430  0.1668E+00  0.4358E+01
  -2.420  0.1668E+00  0.4360E+01
  -2.410  0.1668E+00  0.4361E+01
  -2.400  0.1668E+00  0.4363E+01
  -2.390  0.1668E+00  0.4365E+01
  -2.380  0.1668E+00  0.4366E+01
  -2.370  0.1668E+00  0.4368E+01
  -2.360  0.1668E+00  0.4370E+01
  -2.350  0.1668E+00  0.4371E+01
  -2.340  0.1668E+00  0.4373E+01
  -2.330  0.1668E+00  0.4375E+01
  -2.320  0.1668E+00  0.4376E+01
  -2.310  0.1668E+00  0.4378E+01
  -2.300  0.1668E+00  0.4380E+01
  -2.290  0.1668E+00  0.4381E+01
  -2.280  0.1668E+00  0.4383E+01
  -2.270  0.1668E+00  0.4385E+01
  -2.260  0.1668E+00  0.4386E+01
  -2.250  0.1668E+00  0.4388E+01
  -2.240  0.1668E+00  0.4390E+01
  -2.230  0.1668E+00  0.4391E+01
  -2.220  0.1668E+00  0.4393E+01
  -2.210  0.1668E+00  0.4395E+01
  -2.200  0.1668E+00  0.4396E+01
  -2.190  0.1668E+00  0.4398E+01
  -2.180  0.1668E+00  0.4400E+01
  -2.170  0.1668E+00  0.4401E+01
  -2.160  0.1668E+00  0.4403E+01
  -2.150  0.1668E+00  0.4405E+01
  -2.140  0.1668E+00  0.4406E+01
  -2.130  0.1668E+00  0.4408E+01
  -2.120  0.1668E+00  0.4410E+01
  -2.110  0.1668E+00  0.4411E+01
  -2.100  0.1668E+00  0.4413E+01
  -2.090  0.1668E+00  0.4415E+01
  -2.080  0.1668E+00  0.4416E+01
  -2.070  0.1668E+00  0.4418E+01
  -2.060  0.1643E+00  0.4420E+01
  -2.050  0.1617E+00  0.4421E+01
  -2.040  0.1617E+00  0.4423E+01
  -2.030  0.1617E+00  0.4425E+01
  -2.020  0.1617E+00  0.4426E+01
  -2.010  0.1617E+00  0.4428E+01
  -2.000  0.1617E+00  0.4429E+01
  -1.990  0.1617E+00  0.4431E+01
  -1.980  0.1617E+00  0.4433E+01
  -1.970  0.1617E+00  0.4434E+01
  -1.960  0.1617E+00  0.4436E+01
  -1.950  0.1617E+00  0.4437E+01
  -1.940  0.1617E+00  0.4439E+01
  -1.930  0.1617E+00  0.4441E+01
  -1.920  0.1617E+00  0.4442E+01
  -1.910  0.1617E+00  0.4444E+01
  -1.900  0.1617E+00  0.4446E+01
  -1.890  0.1617E+00  0.4447E+01
  -1.880  0.1617E+00  0.4449E+01
  -1.870  0.1617E+00  0.4450E+01
  -1.860  0.1617E+00  0.4452E+01
  -1.850  0.1617E+00  0.4454E+01
  -1.840  0.1617E+00  0.4455E+01
  -1.830  0.1617E+00  0.4457E+01
  -1.820  0.1617E+00  0.4458E+01
  -1.810  0.1617E+00  0.4460E+01
  -1.800  0.1617E+00  0.4462E+01
  -1.790  0.1617E+00  0.4463E+01
  -1.780  0.1617E+00  0.4465E+01
  -1.770  0.1617E+00  0.4467E+01
  -1.760  0.1617E+00  0.4468E+01
  -1.750  0.1617E+00  0.4470E+01
  -1.740  0.1617E+00  0.4471E+01
  -1.730  0.1617E+00  0.4473E+01
  -1.720  0.1617E+00  0.4475E+01
  -1.710  0.1617E+00  0.4476E+01
  -1.700  0.1617E+00  0.4478E+01
  -1.690  0.1617E+00  0.4480E+01
  -1.680  0.1617E+00  0.4481E+01
  -1.670  0.1617E+00  0.4483E+01
  -1.660  0.1617E+00  0.4484E+01
  -1.650  0.1617E+00  0.4486E+01
  -1.640  0.1617E+00  0.4488E+01
  -1.630  0.1617E+00  0.4489E+01
  -1.620  0.1617E+00  0.4491E+01
  -1.610  0.1617E+00  0.4492E+01
  -1.600  0.1617E+00  0.4494E+01
  -1.590  0.1617E+00  0.4496E+01
  -1.580  0.1617E+00  0.4497E+01
  -1.570  0.1617E+00  0.4499E+01
  -1.560  0.1617E+00  0.4501E+01
  -1.550  0.1617E+00  0.4502E+01
  -1.540  0.1617E+00  0.4504E+01
  -1.530  0.1617E+00  0.4505E+01
  -1.520  0.1617E+00  0.4507E+01
  -1.510  0.1617E+00  0.4509E+01
  -1.500  0.1617E+00  0.4510E+01
  -1.490  0.1617E+00  0.4512E+01
  -1.480  0.1617E+00  0.4513E+01
  -1.470  0.1617E+00  0.4515E+01
  -1.460  0.1617E+00  0.4517E+01
  -1.450  0.1595E+00  0.4518E+01
  -1.440  0.1573E+00  0.4520E+01
  -1.430  0.1573E+00  0.4521E+01
  -1.420  0.1573E+00  0.4523E+01
  -1.410  0.1573E+00  0.4525E+01
  -1.400  0.1573E+00  0.4526E+01
  -1.390  0.1573E+00  0.4528E+01
  -1.380  0.1573E+00  0.4529E+01
  -1.370  0.1573E+00  0.4531E+01
  -1.360  0.1573E+00  0.4532E+01
  -1.350  0.1573E+00  0.4534E+01
  -1.340  0.1573E+00  0.4536E+01
  -1.330  0.1573E+00  0.4537E+01
  -1.320  0.1573E+00  0.4539E+01
  -1.310  0.1573E+00  0.4540E+01
  -1.300  0.1573E+00  0.4542E+01
  -1.290  0.1573E+00  0.4543E+01
  -1.280  0.1573E+00  0.4545E+01
  -1.270  0.1573E+00  0.4547E+01
  -1.260  0.1573E+00  0.4548E+01
  -1.250  0.1573E+00  0.4550E+01
  -1.240  0.1573E+00  0.4551E+01
  -1.230  0.1573E+00  0.4553E+01
  -1.220  0.1573E+00  0.4554E+01
  -1.210  0.1573E+00  0.4556E+01
  -1.200  0.1573E+00  0.4558E+01
  -1.190  0.1573E+00  0.4559E+01
  -1.180  0.1573E+00  0.4561E+01
  -1.170  0.1573E+00  0.4562E+01
  -1.160  0.1573E+00  0.4564E+01
  -1.150  0.1573E+00  0.4566E+01
  -1.140  0.1573E+00  0.4567E+01
  -1.130  0.1573E+00  0.4569E+01
  -1.120  0.1573E+00  0.4570E+01
  -1.110  0.1573E+00  0.4572E+01
  -1.100  0.1573E+00  0.4573E+01
  -1.090  0.1573E+00  0.4575E+01
  -1.080  0.1573E+00  0.4577E+01
  -1.070  0.1573E+00  0.4578E+01
  -1.060  0.1573E+00  0.4580E+01
  -1.050  0.1573E+00  0.4581E+01
  -1.040  0.1573E+00  0.4583E+01
  -1.030  0.1573E+00  0.4584E+01
  -1.020  0.1573E+00  0.4586E+01
  -1.010  0.1573E+00  0.4588E+01
  -1.000  0.1573E+00  0.4589E+01
  -0.990  0.1573E+00  0.4591E+01
  -0.980  0.1573E+00  0.4592E+01
  -0.970  0.1573E+00  0.4594E+01
  -0.960  0.1573E+00  0.4595E+01
  -0.950  0.1573E+00  0.4597E+01
  -0.940  0.1573E+00  0.4599E+01
  -0.930  0.1573E+00  0.4600E+01
  -0.920  0.1573E+00  0.4602E+01
  -0.910  0.1573E+00  0.4603E+01
  -0.900  0.1573E+00  0.4605E+01
  -0.890  0.1573E+00  0.4606E+01
  -0.880  0.1573E+00  0.4608E+01
  -0.870  0.1573E+00  0.4610E+01
  -0.860  0.1573E+00  0.4611E+01
  -0.850  0.1573E+00  0.4613E+01
  -0.840  0.1573E+00  0.4614E+01
  -0.830  0.1573E+00  0.4616E+01
  -0.820  0.1554E+00  0.4617E+01
  -0.810  0.1536E+00  0.4619E+01
  -0.800  0.1536E+00  0.4620E+01
  -0.790  0.1536E+00  0.4622E+01
  -0.780  0.1536E+00  0.4624E+01
  -0.770  0.1536E+00  0.4625E+01
  -0.760  0.1536E+00  0.4627E+01
  -0.750  0.1536E+00  0.4628E+01
  -0.740  0.1536E+00  0.4630E+01
  -0.730  0.1536E+00  0.4631E+01
  -0.720  0.1536E+00  0.4633E+01
  -0.710  0.1536E+00  0.4634E+01
  -0.700  0.1536E+00  0.4636E+01
  -0.690  0.1536E+00  0.4637E+01
  -0.680  0.1536E+00  0.4639E+01
  -0.670  0.1536E+00  0.4640E+01
  -0.660  0.1536E+00  0.4642E+01
  -0.650  0.1536E+00  0.4644E+01
  -0.640  0.1536E+00  0.4645E+01
  -0.630  0.1536E+00  0.4647E+01
  -0.620  0.1536E+00  0.4648E+01
  -0.610  0.1536E+00  0.4650E+01
  -0.600  0.1536E+00  0.4651E+01
  -0.590  0.1536E+00  0.4653E+01
  -0.580  0.1536E+00  0.4654E+01
  -0.570  0.1536E+00  0.4656E+01
  -0.560  0.1536E+00  0.4657E+01
  -0.550  0.1536E+00  0.4659E+01
  -0.540  0.1536E+00  0.4660E+01
  -0.530  0.1536E+00  0.4662E+01
  -0.520  0.1536E+00  0.4663E+01
  -0.510  0.1536E+00  0.4665E+01
  -0.500  0.1536E+00  0.4667E+01
  -0.490  0.1536E+00  0.4668E+01
  -0.480  0.1536E+00  0.4670E+01
  -0.470  0.1536E+00  0.4671E+01
  -0.460  0.1536E+00  0.4673E+01
  -0.450  0.1536E+00  0.4674E+01
  -0.440  0.1536E+00  0.4676E+01
  -0.430  0.1536E+00  0.4677E+01
  -0.420  0.1536E+00  0.4679E+01
  -0.410  0.1536E+00  0.4680E+01
  -0.400  0.1536E+00  0.4682E+01
  -0.390  0.1536E+00  0.4683E+01
  -0.380  0.1536E+00  0.4685E+01
  -0.370  0.1536E+00  0.4687E+01
  -0.360  0.1536E+00  0.4688E+01
  -0.350  0.1536E+00  0.4690E+01
  -0.340  0.1536E+00  0.4691E+01
  -0.330  0.1536E+00  0.4693E+01
  -0.320  0.1536E+00  0.4694E+01
  -0.310  0.1536E+00  0.4696E+01
  -0.300  0.1536E+00  0.4697E+01
  -0.290  0.1536E+00  0.4699E+01
  -0.280  0.1536E+00  0.4700E+01
  -0.270  0.1536E+00  0.4702E+01
  -0.260  0.1536E+00  0.4703E+01
  -0.250  0.1536E+00  0.4705E+01
  -0.240  0.1536E+00  0.4706E+01
  -0.230  0.1536E+00  0.4708E+01
  -0.220  0.1536E+00  0.4710E+01
  -0.210  0.1536E+00  0.4711E+01
  -0.200  0.1536E+00  0.4713E+01
  -0.190  0.1536E+00  0.4714E+01
  -0.180  0.1520E+00  0.4716E+01
  -0.170  0.1505E+00  0.4717E+01
  -0.160  0.1505E+00  0.4719E+01
  -0.150  0.1505E+00  0.4720E+01
  -0.140  0.1505E+00  0.4722E+01
  -0.130  0.1505E+00  0.4723E+01
  -0.120  0.1505E+00  0.4725E+01
  -0.110  0.1505E+00  0.4726E+01
  -0.100  0.1505E+00  0.4728E+01
  -0.090  0.1505E+00  0.4729E+01
  -0.080  0.1505E+00  0.4731E+01
  -0.070  0.1505E+00  0.4732E+01
  -0.060  0.1505E+00  0.4734E+01
  -0.050  0.1505E+00  0.4735E+01
  -0.040  0.1505E+00  0.4737E+01
  -0.030  0.1505E+00  0.4738E+01
  -0.020  0.1505E+00  0.4740E+01
  -0.010  0.1505E+00  0.4741E+01
   0.000  0.1505E+00  0.4743E+01
   0.010  0.1505E+00  0.4744E+01
   0.020  0.1505E+00  0.4746E+01
   0.030  0.1505E+00  0.4747E+01
   0.040  0.1505E+00  0.4749E+01
   0.050  0.1505E+00  0.4750E+01
   0.060  0.1505E+00  0.4752E+01
   0.070  0.1505E+00  0.4753E+01
   0.080  0.1505E+00  0.4755E+01
   0.090  0.1505E+00  0.4756E+01
   0.100  0.1505E+00  0.4758E+01
   0.110  0.1505E+00  0.4759E+01
   0.120  0.1505E+00  0.4761E+01
   0.130  0.1505E+00  0.4762E+01
   0.140  0.1505E+00  0.4764E+01
   0.150  0.1505E+00  0.4765E+01
   0.160  0.1505E+00  0.4767E+01
   0.170  0.1505E+00  0.4768E+01
   0.180  0.2038E+01  0.4807E+01
   0.190  0.2038E+01  0.4828E+01
   0.200  0.1095E+01  0.4848E+01
   0.210  0.1095E+01  0.4859E+01
   0.220  0.1095E+01  0.4869E+01
   0.230  0.1095E+01  0.4880E+01
   0.240  0.1095E+01  0.4891E+01
   0.250  0.1095E+01  0.4902E+01
   0.260  0.7804E+00  0.4911E+01
   0.270  0.7804E+00  0.4918E+01
   0.280  0.7804E+00  0.4926E+01
   0.290  0.7804E+00  0.4934E+01
   0.300  0.7804E+00  0.4942E+01
   0.310  0.7804E+00  0.4950E+01
   0.320  0.7804E+00  0.4957E+01
   0.330  0.4344E+01  0.5039E+01
   0.340  0.4187E+01  0.5081E+01
   0.350  0.4187E+01  0.5123E+01
   0.360  0.2405E+01  0.5148E+01
   0.370  0.2405E+01  0.5172E+01
   0.380  0.2405E+01  0.5196E+01
   0.390  0.4183E+01  0.5249E+01
   0.400  0.4183E+01  0.5291E+01
   0.410  0.3589E+01  0.5331E+01
   0.420  0.2700E+01  0.5363E+01
   0.430  0.2700E+01  0.5390E+01
   0.440  0.2606E+01  0.5416E+01
   0.450  0.2606E+01  0.5442E+01
   0.460  0.2606E+01  0.5468E+01
   0.470  0.2606E+01  0.5494E+01
   0.480  0.2308E+01  0.5518E+01
   0.490  0.2010E+01  0.5541E+01
   0.500  0.2010E+01  0.5561E+01
   0.510  0.2010E+01  0.5581E+01
   0.520  0.2010E+01  0.5601E+01
   0.530  0.2010E+01  0.5621E+01
   0.540  0.2010E+01  0.5641E+01
   0.550  0.2010E+01  0.5661E+01
   0.560  0.1862E+01  0.5680E+01
   0.570  0.1800E+01  0.5699E+01
   0.580  0.1800E+01  0.5717E+01
   0.590  0.1800E+01  0.5735E+01
   0.600  0.1800E+01  0.5753E+01
   0.610  0.1621E+01  0.5769E+01
   0.620  0.1621E+01  0.5785E+01
   0.630  0.1621E+01  0.5801E+01
   0.640  0.1621E+01  0.5818E+01
   0.650  0.1621E+01  0.5834E+01
   0.660  0.1621E+01  0.5850E+01
   0.670  0.1533E+01  0.5866E+01
   0.680  0.1533E+01  0.5881E+01
   0.690  0.1533E+01  0.5897E+01
   0.700  0.1533E+01  0.5912E+01
   0.710  0.1533E+01  0.5927E+01
   0.720  0.1533E+01  0.5943E+01
   0.730  0.1488E+01  0.5958E+01
   0.740  0.1369E+01  0.5972E+01
   0.750  0.1369E+01  0.5986E+01
   0.760  0.1369E+01  0.6000E+01
   0.770  0.1369E+01  0.6013E+01
   0.780  0.1369E+01  0.6027E+01
   0.790  0.1369E+01  0.6041E+01
   0.800  0.1369E+01  0.6054E+01
   0.810  0.1310E+01  0.6068E+01
   0.820  0.1310E+01  0.6081E+01
   0.830  0.1310E+01  0.6094E+01
   0.840  0.1310E+01  0.6107E+01
   0.850  0.1310E+01  0.6120E+01
   0.860  0.1310E+01  0.6133E+01
   0.870  0.1310E+01  0.6146E+01
   0.880  0.1310E+01  0.6159E+01
   0.890  0.1310E+01  0.6173E+01
   0.900  0.1310E+01  0.6186E+01
   0.910  0.1192E+01  0.6198E+01
   0.920  0.1192E+01  0.6210E+01
   0.930  0.1192E+01  0.6222E+01
   0.940  0.1192E+01  0.6234E+01
   0.950  0.1192E+01  0.6246E+01
   0.960  0.1192E+01  0.6258E+01
   0.970  0.1192E+01  0.6270E+01
   0.980  0.1149E+01  0.6281E+01
   0.990  0.1149E+01  0.6293E+01
   1.000  0.1149E+01  0.6304E+01
   1.010  0.1149E+01  0.6316E+01
   1.020  0.1149E+01  0.6327E+01
   1.030  0.1149E+01  0.6339E+01
   1.040  0.1149E+01  0.6350E+01
   1.050  0.1149E+01  0.6362E+01
   1.060  0.1149E+01  0.6373E+01
   1.070  0.1149E+01  0.6385E+01
   1.080  0.1149E+01  0.6396E+01
   1.090  0.1149E+01  0.6408E+01
   1.100  0.1086E+01  0.6419E+01
   1.110  0.1086E+01  0.6430E+01
   1.120  0.1060E+01  0.6441E+01
   1.130  0.1060E+01  0.6451E+01
   1.140  0.1060E+01  0.6462E+01
   1.150  0.1059E+01  0.6472E+01
   1.160  0.1059E+01  0.6483E+01
   1.170  0.1027E+01  0.6493E+01
   1.180  0.1027E+01  0.6504E+01
   1.190  0.1027E+01  0.6514E+01
   1.200  0.1027E+01  0.6524E+01
   1.210  0.1027E+01  0.6534E+01
   1.220  0.1027E+01  0.6545E+01
   1.230  0.1027E+01  0.6555E+01
   1.240  0.1027E+01  0.6565E+01
   1.250  0.1027E+01  0.6575E+01
   1.260  0.1027E+01  0.6586E+01
   1.270  0.1027E+01  0.6596E+01
   1.280  0.1027E+01  0.6606E+01
   1.290  0.1027E+01  0.6617E+01
   1.300  0.1027E+01  0.6627E+01
   1.310  0.1027E+01  0.6637E+01
   1.320  0.1027E+01  0.6647E+01
   1.330  0.9773E+00  0.6657E+01
   1.340  0.9773E+00  0.6667E+01
   1.350  0.9568E+00  0.6677E+01
   1.360  0.9568E+00  0.6686E+01
   1.370  0.9568E+00  0.6696E+01
   1.380  0.9568E+00  0.6705E+01
   1.390  0.9321E+00  0.6715E+01
   1.400  0.9321E+00  0.6724E+01
   1.410  0.9321E+00  0.6733E+01
   1.420  0.9321E+00  0.6743E+01
   1.430  0.9321E+00  0.6752E+01
   1.440  0.9321E+00  0.6761E+01
   1.450  0.9321E+00  0.6771E+01
   1.460  0.9321E+00  0.6780E+01
   1.470  0.9321E+00  0.6789E+01
   1.480  0.9321E+00  0.6799E+01
   1.490  0.9321E+00  0.6808E+01
   1.500  0.9321E+00  0.6817E+01
   1.510  0.9321E+00  0.6827E+01
   1.520  0.9321E+00  0.6836E+01
   1.530  0.9321E+00  0.6845E+01
   1.540  0.9321E+00  0.6855E+01
   1.550  0.9321E+00  0.6864E+01
   1.560  0.9321E+00  0.6873E+01
   1.570  0.9321E+00  0.6883E+01
   1.580  0.8925E+00  0.6892E+01
   1.590  0.8925E+00  0.6900E+01
   1.600  0.8925E+00  0.6909E+01
   1.610  0.8758E+00  0.6918E+01
   1.620  0.8758E+00  0.6927E+01
   1.630  0.8758E+00  0.6936E+01
   1.640  0.8561E+00  0.6944E+01
   1.650  0.8561E+00  0.6953E+01
   1.660  0.8561E+00  0.6961E+01
   1.670  0.8561E+00  0.6970E+01
   1.680  0.8561E+00  0.6979E+01
   1.690  0.8561E+00  0.6987E+01
   1.700  0.8561E+00  0.6996E+01
   1.710  0.8561E+00  0.7004E+01
   1.720  0.8561E+00  0.7013E+01
   1.730  0.8561E+00  0.7021E+01
   1.740  0.8561E+00  0.7030E+01
   1.750  0.8561E+00  0.7039E+01
   1.760  0.8561E+00  0.7047E+01
   1.770  0.8561E+00  0.7056E+01
   1.780  0.8561E+00  0.7064E+01
   1.790  0.8561E+00  0.7073E+01
   1.800  0.8561E+00  0.7081E+01
   1.810  0.8561E+00  0.7090E+01
   1.820  0.8559E+00  0.7098E+01
   1.830  0.8558E+00  0.7107E+01
   1.840  0.8558E+00  0.7116E+01
   1.850  0.8234E+00  0.7124E+01
   1.860  0.8234E+00  0.7132E+01
   1.870  0.8234E+00  0.7141E+01
   1.880  0.8234E+00  0.7149E+01
   1.890  0.8097E+00  0.7157E+01
   1.900  0.8097E+00  0.7165E+01
   1.910  0.8097E+00  0.7173E+01
   1.920  0.7935E+00  0.7181E+01
   1.930  0.7935E+00  0.7189E+01
   1.940  0.7935E+00  0.7197E+01
   1.950  0.7935E+00  0.7205E+01
   1.960  0.7935E+00  0.7213E+01
   1.970  0.7935E+00  0.7221E+01
   1.980  0.7935E+00  0.7229E+01
   1.990  0.7935E+00  0.7237E+01
   2.000  0.7935E+00  0.7245E+01
   2.010  0.7935E+00  0.7253E+01
   2.020  0.7935E+00  0.7260E+01
   2.030  0.7935E+00  0.7268E+01
   2.040  0.7935E+00  0.7276E+01
   2.050  0.7935E+00  0.7284E+01
   2.060  0.7935E+00  0.7292E+01
   2.070  0.7935E+00  0.7300E+01
   2.080  0.7935E+00  0.7308E+01
   2.090  0.7935E+00  0.7316E+01
   2.100  0.7935E+00  0.7324E+01
   2.110  0.7935E+00  0.7332E+01
   2.120  0.7935E+00  0.7340E+01
   2.130  0.7935E+00  0.7348E+01
   2.140  0.7935E+00  0.7356E+01
   2.150  0.7935E+00  0.7364E+01
   2.160  0.7666E+00  0.7371E+01
   2.170  0.7666E+00  0.7379E+01
   2.180  0.7666E+00  0.7387E+01
   2.190  0.7551E+00  0.7394E+01
   2.200  0.7551E+00  0.7402E+01
   2.210  0.7551E+00  0.7409E+01
   2.220  0.7551E+00  0.7417E+01
   2.230  0.7417E+00  0.7424E+01
   2.240  0.7417E+00  0.7432E+01
   2.250  0.7417E+00  0.7439E+01
   2.260  0.7417E+00  0.7447E+01
   2.270  0.7417E+00  0.7454E+01
   2.280  0.7417E+00  0.7462E+01
   2.290  0.7417E+00  0.7469E+01
   2.300  0.7417E+00  0.7476E+01
   2.310  0.7417E+00  0.7484E+01
   2.320  0.7417E+00  0.7491E+01
   2.330  0.7417E+00  0.7499E+01
   2.340  0.7417E+00  0.7506E+01
   2.350  0.7417E+00  0.7513E+01
   2.360  0.7417E+00  0.7521E+01
   2.370  0.7417E+00  0.7528E+01
   2.380  0.7417E+00  0.7536E+01
   2.390  0.7417E+00  0.7543E+01
   2.400  0.7417E+00  0.7551E+01
   2.410  0.7417E+00  0.7558E+01
   2.420  0.7417E+00  0.7565E+01
   2.430  0.7417E+00  0.7573E+01
   2.440  0.7417E+00  0.7580E+01
   2.450  0.7417E+00  0.7588E+01
   2.460  0.7417E+00  0.7595E+01
   2.470  0.7417E+00  0.7602E+01
   2.480  0.7417E+00  0.7610E+01
   2.490  0.7194E+00  0.7617E+01
   2.500  0.7200E+00  0.7624E+01
   2.510  0.7200E+00  0.7632E+01
   2.520  0.7104E+00  0.7639E+01
   2.530  0.2488E+01  0.7681E+01
   2.540  0.2488E+01  0.7706E+01
   2.550  0.2488E+01  0.7731E+01
   2.560  0.1588E+01  0.7748E+01
   2.570  0.1588E+01  0.7764E+01
   2.580  0.1588E+01  0.7780E+01
   2.590  0.1588E+01  0.7796E+01
   2.600  0.1588E+01  0.7812E+01
   2.610  0.1292E+01  0.7827E+01
   2.620  0.1292E+01  0.7840E+01
   2.630  0.1292E+01  0.7853E+01
   2.640  0.1292E+01  0.7866E+01
   2.650  0.1292E+01  0.7879E+01
   2.660  0.1292E+01  0.7892E+01
   2.670  0.1292E+01  0.7904E+01
   2.680  0.1292E+01  0.7917E+01
   2.690  0.1292E+01  0.7930E+01
   2.700  0.1143E+01  0.7942E+01
   2.710  0.1143E+01  0.7953E+01
   2.720  0.1143E+01  0.7965E+01
   2.730  0.1143E+01  0.7976E+01
   2.740  0.1143E+01  0.7988E+01
   2.750  0.1143E+01  0.7999E+01
   2.760  0.1143E+01  0.8010E+01
   2.770  0.1143E+01  0.8022E+01
   2.780  0.1143E+01  0.8033E+01
   2.790  0.1143E+01  0.8045E+01
   2.800  0.1143E+01  0.8056E+01
   2.810  0.1055E+01  0.8067E+01
   2.820  0.1055E+01  0.8077E+01
   2.830  0.1055E+01  0.8088E+01
   2.840  0.1055E+01  0.8099E+01
   2.850  0.2813E+01  0.8150E+01
   2.860  0.2813E+01  0.8178E+01
   2.870  0.1924E+01  0.8205E+01
   2.880  0.1916E+01  0.8224E+01
   2.890  0.1916E+01  0.8243E+01
   2.900  0.1916E+01  0.8262E+01
   2.910  0.1916E+01  0.8282E+01
   2.920  0.1906E+01  0.8301E+01
   2.930  0.1610E+01  0.8318E+01
   2.940  0.1610E+01  0.8334E+01
   2.950  0.1551E+01  0.8350E+01
   2.960  0.1551E+01  0.8365E+01
   2.970  0.1551E+01  0.8381E+01
   2.980  0.1551E+01  0.8396E+01
   2.990  0.1551E+01  0.8412E+01
   3.000  0.1551E+01  0.8427E+01
   3.010  0.1402E+01  0.8442E+01
   3.020  0.1402E+01  0.8456E+01
   3.030  0.1402E+01  0.8470E+01
   3.040  0.1402E+01  0.8484E+01
   3.050  0.1402E+01  0.8498E+01
   3.060  0.1402E+01  0.8512E+01
   3.070  0.1402E+01  0.8527E+01
   3.080  0.1402E+01  0.8541E+01
   3.090  0.1402E+01  0.8555E+01
   3.100  0.1402E+01  0.8569E+01
   3.110  0.1360E+01  0.8583E+01
   3.120  0.1271E+01  0.8596E+01
   3.130  0.1271E+01  0.8609E+01
   3.140  0.1271E+01  0.8621E+01
   3.150  0.1271E+01  0.8634E+01
   3.160  0.1273E+01  0.8647E+01
   3.170  0.1274E+01  0.8660E+01
   3.180  0.1274E+01  0.8672E+01
   3.190  0.1274E+01  0.8685E+01
   3.200  0.1274E+01  0.8698E+01
   3.210  0.1274E+01  0.8711E+01
   3.220  0.1274E+01  0.8723E+01
   3.230  0.1274E+01  0.8736E+01
   3.240  0.1257E+01  0.8749E+01
   3.250  0.1251E+01  0.8761E+01
   3.260  0.1191E+01  0.8774E+01
   3.270  0.1191E+01  0.8785E+01
   3.280  0.1191E+01  0.8797E+01
   3.290  0.1191E+01  0.8809E+01
   3.300  0.1191E+01  0.8821E+01
   3.310  0.1151E+01  0.8833E+01
   3.320  0.1151E+01  0.8844E+01
   3.330  0.1151E+01  0.8856E+01
   3.340  0.2933E+01  0.8901E+01
   3.350  0.2933E+01  0.8931E+01
   3.360  0.2933E+01  0.8960E+01
   3.370  0.2042E+01  0.8983E+01
   3.380  0.2042E+01  0.9003E+01
   3.390  0.2042E+01  0.9023E+01
   3.400  0.2042E+01  0.9044E+01
   3.410  0.2042E+01  0.9064E+01
   3.420  0.1745E+01  0.9084E+01
   3.430  0.1702E+01  0.9101E+01
   3.440  0.1702E+01  0.9118E+01
   3.450  0.1702E+01  0.9135E+01
   3.460  0.1702E+01  0.9152E+01
   3.470  0.1702E+01  0.9169E+01
   3.480  0.1702E+01  0.9186E+01
   3.490  0.1702E+01  0.9203E+01
   3.500  0.1702E+01  0.9220E+01
   3.510  0.1554E+01  0.9236E+01
   3.520  0.1554E+01  0.9252E+01
   3.530  0.1530E+01  0.9267E+01
   3.540  0.1530E+01  0.9282E+01
   3.550  0.1530E+01  0.9298E+01
   3.560  0.1530E+01  0.9313E+01
   3.570  0.1530E+01  0.9328E+01
   3.580  0.1530E+01  0.9344E+01
   3.590  0.1530E+01  0.9359E+01
   3.600  0.1530E+01  0.9374E+01
   3.610  0.1530E+01  0.9390E+01
   3.620  0.1409E+01  0.9404E+01
   3.630  0.1409E+01  0.9418E+01
   3.640  0.1403E+01  0.9432E+01
   3.650  0.1389E+01  0.9446E+01
   3.660  0.1389E+01  0.9460E+01
   3.670  0.1389E+01  0.9474E+01
   3.680  0.1389E+01  0.9488E+01
   3.690  0.1389E+01  0.9502E+01
   3.700  0.1389E+01  0.9516E+01
   3.710  0.1389E+01  0.9530E+01
   3.720  0.1389E+01  0.9543E+01
   3.730  0.1381E+01  0.9557E+01
   3.740  0.1381E+01  0.9571E+01
   3.750  0.1381E+01  0.9585E+01
   3.760  0.1322E+01  0.9598E+01
   3.770  0.1322E+01  0.9611E+01
   3.780  0.1302E+01  0.9624E+01
   3.790  0.1302E+01  0.9638E+01
   3.800  0.1302E+01  0.9651E+01
   3.810  0.1305E+01  0.9664E+01
   3.820  0.1308E+01  0.9677E+01
   3.830  0.1308E+01  0.9690E+01
   3.840  0.1308E+01  0.9703E+01
   3.850  0.1283E+01  0.9716E+01
   3.860  0.1283E+01  0.9728E+01
   3.870  0.1283E+01  0.9741E+01
   3.880  0.1283E+01  0.9754E+01
   3.890  0.1283E+01  0.9767E+01
   3.900  0.1283E+01  0.9780E+01
   3.910  0.1283E+01  0.9793E+01
   3.920  0.1241E+01  0.9805E+01
   3.930  0.1241E+01  0.9818E+01
   3.940  0.1241E+01  0.9830E+01
   3.950  0.1241E+01  0.9843E+01
   3.960  0.1241E+01  0.9855E+01
   3.970  0.1241E+01  0.9867E+01
   3.980  0.1241E+01  0.9880E+01
   3.990  0.1241E+01  0.9892E+01
   4.000  0.1241E+01  0.9905E+01
   4.010  0.1241E+01  0.9917E+01
   4.020  0.1241E+01  0.9929E+01
   4.030  0.1241E+01  0.9942E+01
   4.040  0.1241E+01  0.9954E+01
   4.050  0.1237E+01  0.9967E+01
   4.060  0.1221E+01  0.9979E+01
   4.070  0.1221E+01  0.9991E+01
   4.080  0.1221E+01  0.1000E+02
   4.090  0.1221E+01  0.1002E+02
   4.100  0.3335E+01  0.1003E+02
   4.110  0.3335E+01  0.1006E+02
   4.120  0.3303E+01  0.1009E+02
   4.130  0.1877E+01  0.1012E+02
   4.140  0.1877E+01  0.1014E+02
   4.150  0.1877E+01  0.1015E+02
   4.160  0.1877E+01  0.1017E+02
   4.170  0.1870E+01  0.1019E+02
   4.180  0.1870E+01  0.1021E+02
   4.190  0.1870E+01  0.1023E+02
   4.200  0.1588E+01  0.1025E+02
   4.210  0.1588E+01  0.1026E+02
   4.220  0.1588E+01  0.1028E+02
   4.230  0.1588E+01  0.1029E+02
   4.240  0.1588E+01  0.1031E+02
   4.250  0.1588E+01  0.1033E+02
   4.260  0.1588E+01  0.1034E+02
   4.270  0.1588E+01  0.1036E+02
   4.280  0.1588E+01  0.1037E+02
   4.290  0.1588E+01  0.1039E+02
   4.300  0.1588E+01  0.1040E+02
   4.310  0.1470E+01  0.1042E+02
   4.320  0.1470E+01  0.1043E+02
   4.330  0.1470E+01  0.1045E+02
   4.340  0.1445E+01  0.1046E+02
   4.350  0.1445E+01  0.1048E+02
   4.360  0.1432E+01  0.1049E+02
   4.370  0.1416E+01  0.1051E+02
   4.380  0.1416E+01  0.1052E+02
   4.390  0.1416E+01  0.1054E+02
   4.400  0.1416E+01  0.1055E+02
   4.410  0.1416E+01  0.1056E+02
   4.420  0.1416E+01  0.1058E+02
   4.430  0.1416E+01  0.1059E+02
   4.440  0.1571E+01  0.1061E+02
   4.450  0.1578E+01  0.1062E+02
   4.460  0.1514E+01  0.1064E+02
   4.470  0.1514E+01  0.1065E+02
   4.480  0.1512E+01  0.1067E+02
   4.490  0.1512E+01  0.1068E+02
   4.500  0.1512E+01  0.1070E+02
   4.510  0.1512E+01  0.1071E+02
   4.520  0.1512E+01  0.1073E+02
   4.530  0.1512E+01  0.1074E+02
   4.540  0.1512E+01  0.1076E+02
   4.550  0.1512E+01  0.1077E+02
   4.560  0.1512E+01  0.1079E+02
   4.570  0.1500E+01  0.1080E+02
   4.580  0.1500E+01  0.1082E+02
   4.590  0.1480E+01  0.1083E+02
   4.600  0.1480E+01  0.1085E+02
   4.610  0.1480E+01  0.1086E+02
   4.620  0.1480E+01  0.1088E+02
   4.630  0.1480E+01  0.1089E+02
   4.640  0.1474E+01  0.1091E+02
   4.650  0.1474E+01  0.1092E+02
   4.660  0.9840E+00  0.1093E+02
   4.670  0.9840E+00  0.1094E+02
   4.680  0.9706E+00  0.1095E+02
   4.690  0.9706E+00  0.1096E+02
   4.700  0.9592E+00  0.1097E+02
   4.710  0.9592E+00  0.1098E+02
   4.720  0.9592E+00  0.1099E+02
   4.730  0.9592E+00  0.1100E+02
   4.740  0.9592E+00  0.1101E+02
   4.750  0.9592E+00  0.1102E+02
   4.760  0.9592E+00  0.1103E+02
   4.770  0.9592E+00  0.1104E+02
   4.780  0.9592E+00  0.1105E+02
   4.790  0.9592E+00  0.1106E+02
   4.800  0.9592E+00  0.1107E+02
   4.810  0.9592E+00  0.1108E+02
   4.820  0.9592E+00  0.1109E+02
   4.830  0.9592E+00  0.1110E+02
   4.840  0.9592E+00  0.1111E+02
   4.850  0.9592E+00  0.1112E+02
   4.860  0.9431E+00  0.1112E+02
   4.870  0.9431E+00  0.1113E+02
   4.880  0.1439E+01  0.1114E+02
   4.890  0.1439E+01  0.1116E+02
   4.900  0.1439E+01  0.1117E+02
   4.910  0.1439E+01  0.1119E+02
   4.920  0.1439E+01  0.1120E+02
   4.930  0.1439E+01  0.1122E+02
   4.940  0.1439E+01  0.1123E+02
   4.950  0.1439E+01  0.1125E+02
   4.960  0.1439E+01  0.1126E+02
   4.970  0.1439E+01  0.1127E+02
   4.980  0.1439E+01  0.1129E+02
   4.990  0.1439E+01  0.1130E+02
   5.000  0.1439E+01  0.1132E+02
   5.010  0.1427E+01  0.1133E+02
   5.020  0.1427E+01  0.1135E+02
   5.030  0.1427E+01  0.1136E+02
   5.040  0.1435E+01  0.1137E+02
   5.050  0.1225E+01  0.1139E+02
   5.060  0.1210E+01  0.1140E+02
   5.070  0.1205E+01  0.1141E+02
   5.080  0.1205E+01  0.1142E+02
   5.090  0.1205E+01  0.1144E+02
   5.100  0.1205E+01  0.1145E+02
   5.110  0.1205E+01  0.1146E+02
   5.120  0.1205E+01  0.1147E+02
   5.130  0.1205E+01  0.1148E+02
   5.140  0.1184E+01  0.1150E+02
   5.150  0.1184E+01  0.1151E+02
   5.160  0.1184E+01  0.1152E+02
   5.170  0.1171E+01  0.1153E+02
   5.180  0.1171E+01  0.1154E+02
   5.190  0.1171E+01  0.1155E+02
   5.200  0.1171E+01  0.1157E+02
   5.210  0.1171E+01  0.1158E+02
   5.220  0.1171E+01  0.1159E+02
   5.230  0.1171E+01  0.1160E+02
   5.240  0.1171E+01  0.1161E+02
   5.250  0.1171E+01  0.1162E+02
   5.260  0.1171E+01  0.1164E+02
   5.270  0.1171E+01  0.1165E+02
   5.280  0.1171E+01  0.1166E+02
   5.290  0.1171E+01  0.1167E+02
   5.300  0.1171E+01  0.1168E+02
   5.310  0.1171E+01  0.1170E+02
   5.320  0.1171E+01  0.1171E+02
   5.330  0.1171E+01  0.1172E+02
   5.340  0.1174E+01  0.1173E+02
   5.350  0.1174E+01  0.1174E+02
   5.360  0.1174E+01  0.1175E+02
   5.370  0.1164E+01  0.1177E+02
   5.380  0.1164E+01  0.1178E+02
   5.390  0.1164E+01  0.1179E+02
   5.400  0.1164E+01  0.1180E+02
   5.410  0.1156E+01  0.1181E+02
   5.420  0.1156E+01  0.1182E+02
   5.430  0.1156E+01  0.1184E+02
   5.440  0.1156E+01  0.1185E+02
   5.450  0.1148E+01  0.1186E+02
   5.460  0.1148E+01  0.1187E+02
   5.470  0.1148E+01  0.1188E+02
   5.480  0.1148E+01  0.1189E+02
   5.490  0.1148E+01  0.1190E+02
   5.500  0.1136E+01  0.1192E+02
   5.510  0.1136E+01  0.1193E+02
   5.520  0.1136E+01  0.1194E+02
   5.530  0.1136E+01  0.1195E+02
   5.540  0.1136E+01  0.1196E+02
   5.550  0.1136E+01  0.1197E+02
   5.560  0.1136E+01  0.1198E+02
   5.570  0.1152E+01  0.1200E+02
   5.580  0.1168E+01  0.1201E+02
   5.590  0.1159E+01  0.1202E+02
   5.600  0.1159E+01  0.1203E+02
   5.610  0.1159E+01  0.1204E+02
   5.620  0.1159E+01  0.1205E+02
   5.630  0.1159E+01  0.1206E+02
   5.640  0.1159E+01  0.1208E+02
   5.650  0.1159E+01  0.1209E+02
   5.660  0.1159E+01  0.1210E+02
   5.670  0.1154E+01  0.1211E+02
   5.680  0.1154E+01  0.1212E+02
   5.690  0.1154E+01  0.1213E+02
   5.700  0.1152E+01  0.1215E+02
   5.710  0.1152E+01  0.1216E+02
   5.720  0.1152E+01  0.1217E+02
   5.730  0.1152E+01  0.1218E+02
   5.740  0.1152E+01  0.1219E+02
   5.750  0.1152E+01  0.1220E+02
   5.760  0.1153E+01  0.1221E+02
   5.770  0.1153E+01  0.1223E+02
   5.780  0.1153E+01  0.1224E+02
   5.790  0.1153E+01  0.1225E+02
   5.800  0.1153E+01  0.1226E+02
   5.810  0.1153E+01  0.1227E+02
   5.820  0.1153E+01  0.1228E+02
   5.830  0.1153E+01  0.1230E+02
   5.840  0.1153E+01  0.1231E+02
   5.850  0.1153E+01  0.1232E+02
   5.860  0.1136E+01  0.1233E+02
   5.870  0.1136E+01  0.1234E+02
   5.880  0.1136E+01  0.1235E+02
   5.890  0.1136E+01  0.1236E+02
   5.900  0.1136E+01  0.1238E+02
   5.910  0.1136E+01  0.1239E+02
   5.920  0.1136E+01  0.1240E+02
   5.930  0.1136E+01  0.1241E+02
   5.940  0.1136E+01  0.1242E+02
   5.950  0.1136E+01  0.1243E+02
   5.960  0.1136E+01  0.1244E+02
   5.970  0.1136E+01  0.1245E+02
   5.980  0.1136E+01  0.1247E+02
   5.990  0.1136E+01  0.1248E+02
   6.000  0.1142E+01  0.1249E+02
   6.010  0.1142E+01  0.1250E+02
   6.020  0.1142E+01  0.1251E+02
   6.030  0.1174E+01  0.1252E+02
   6.040  0.1206E+01  0.1254E+02
   6.050  0.1206E+01  0.1255E+02
   6.060  0.1206E+01  0.1256E+02
   6.070  0.1206E+01  0.1257E+02
   6.080  0.1206E+01  0.1258E+02
   6.090  0.1206E+01  0.1260E+02
   6.100  0.1206E+01  0.1261E+02
   6.110  0.1206E+01  0.1262E+02
   6.120  0.1206E+01  0.1263E+02
   6.130  0.1206E+01  0.1264E+02
   6.140  0.1198E+01  0.1266E+02
   6.150  0.1220E+01  0.1267E+02
   6.160  0.1220E+01  0.1268E+02
   6.170  0.1220E+01  0.1269E+02
   6.180  0.1212E+01  0.1270E+02
   6.190  0.1212E+01  0.1272E+02
   6.200  0.1212E+01  0.1273E+02
   6.210  0.1212E+01  0.1274E+02
   6.220  0.1212E+01  0.1275E+02
   6.230  0.1208E+01  0.1277E+02
   6.240  0.1208E+01  0.1278E+02
   6.250  0.1199E+01  0.1279E+02
   6.260  0.1199E+01  0.1280E+02
   6.270  0.1199E+01  0.1281E+02
   6.280  0.1220E+01  0.1283E+02
   6.290  0.1220E+01  0.1284E+02
   6.300  0.1220E+01  0.1285E+02
   6.310  0.1213E+01  0.1286E+02
   6.320  0.1213E+01  0.1287E+02
   6.330  0.1213E+01  0.1289E+02
   6.340  0.1213E+01  0.1290E+02
   6.350  0.1213E+01  0.1291E+02
   6.360  0.1213E+01  0.1292E+02
   6.370  0.1213E+01  0.1293E+02
   6.380  0.1294E+01  0.1295E+02
   6.390  0.1374E+01  0.1296E+02
   6.400  0.1374E+01  0.1297E+02
   6.410  0.1374E+01  0.1299E+02
   6.420  0.1374E+01  0.1300E+02
   6.430  0.1374E+01  0.1302E+02
   6.440  0.1374E+01  0.1303E+02
   6.450  0.1374E+01  0.1304E+02
   6.460  0.1374E+01  0.1306E+02
   6.470  0.1374E+01  0.1307E+02
   6.480  0.1429E+01  0.1308E+02
   6.490  0.1429E+01  0.1310E+02
   6.500  0.1429E+01  0.1311E+02
   6.510  0.1429E+01  0.1313E+02
   6.520  0.1429E+01  0.1314E+02
   6.530  0.1482E+01  0.1316E+02
   6.540  0.1482E+01  0.1317E+02
   6.550  0.1482E+01  0.1319E+02
   6.560  0.1482E+01  0.1320E+02
   6.570  0.1482E+01  0.1322E+02
   6.580  0.1482E+01  0.1323E+02
   6.590  0.1482E+01  0.1324E+02
   6.600  0.1902E+01  0.1326E+02
   6.610  0.2322E+01  0.1328E+02
   6.620  0.2316E+01  0.1330E+02
   6.630  0.2316E+01  0.1333E+02
   6.640  0.2316E+01  0.1335E+02
   6.650  0.2316E+01  0.1337E+02
   6.660  0.2308E+01  0.1340E+02
   6.670  0.2308E+01  0.1342E+02
   6.680  0.1667E+01  0.1344E+02
   6.690  0.1027E+01  0.1345E+02
   6.700  0.1027E+01  0.1346E+02
   6.710  0.1027E+01  0.1347E+02
   6.720  0.1027E+01  0.1348E+02
   6.730  0.1393E+01  0.1350E+02
   6.740  0.1393E+01  0.1351E+02
   6.750  0.1393E+01  0.1352E+02
   6.760  0.1393E+01  0.1354E+02
   6.770  0.1393E+01  0.1355E+02
   6.780  0.1387E+01  0.1357E+02
   6.790  0.1387E+01  0.1358E+02
   6.800  0.1387E+01  0.1359E+02
   6.810  0.1383E+01  0.1361E+02
   6.820  0.1383E+01  0.1362E+02
   6.830  0.1383E+01  0.1364E+02
   6.840  0.1383E+01  0.1365E+02
   6.850  0.5583E+00  0.1371E+02
   6.860  0.5583E+00  0.1371E+02
   6.870  0.5583E+00  0.1372E+02
   6.880  0.5583E+00  0.1372E+02
   6.890  0.5583E+00  0.1373E+02
   6.900  0.5583E+00  0.1374E+02
   6.910  0.5583E+00  0.1374E+02
   6.920  0.5583E+00  0.1375E+02
   6.930  0.5583E+00  0.1375E+02
   6.940  0.5583E+00  0.1376E+02
   6.950  0.5583E+00  0.1376E+02
   6.960  0.5583E+00  0.1377E+02
   6.970  0.5583E+00  0.1377E+02
   6.980  0.5583E+00  0.1378E+02
   6.990  0.5583E+00  0.1379E+02
   7.000  0.5583E+00  0.1379E+02
   7.010  0.5583E+00  0.1380E+02
   7.020  0.5583E+00  0.1380E+02
   7.030  0.5583E+00  0.1381E+02
   7.040  0.5583E+00  0.1381E+02
   7.050  0.5583E+00  0.1382E+02
   7.060  0.5583E+00  0.1382E+02
   7.070  0.5583E+00  0.1383E+02
   7.080  0.5583E+00  0.1384E+02
   7.090  0.5583E+00  0.1384E+02
   7.100  0.5460E+00  0.1385E+02
   7.110  0.5460E+00  0.1385E+02
   7.120  0.5460E+00  0.1386E+02
   7.130  0.5460E+00  0.1386E+02
   7.140  0.5460E+00  0.1387E+02
   7.150  0.5460E+00  0.1387E+02
   7.160  0.5460E+00  0.1388E+02
   7.170  0.5460E+00  0.1389E+02
   7.180  0.5460E+00  0.1389E+02
   7.190  0.5460E+00  0.1390E+02
   7.200  0.5460E+00  0.1390E+02
   7.210  0.5460E+00  0.1391E+02
   7.220  0.5460E+00  0.1391E+02
   7.230  0.5460E+00  0.1392E+02
   7.240  0.5460E+00  0.1392E+02
   7.250  0.5460E+00  0.1393E+02
   7.260  0.5460E+00  0.1393E+02
   7.270  0.5460E+00  0.1394E+02
   7.280  0.5408E+00  0.1395E+02
   7.290  0.5408E+00  0.1395E+02
   7.300  0.5408E+00  0.1396E+02
   7.310  0.5408E+00  0.1396E+02
   7.320  0.5408E+00  0.1397E+02
   7.330  0.5338E+00  0.1397E+02
   7.340  0.5338E+00  0.1398E+02
   7.350  0.5338E+00  0.1398E+02
   7.360  0.5338E+00  0.1399E+02
   7.370  0.5338E+00  0.1399E+02
   7.380  0.5338E+00  0.1400E+02
   7.390  0.5338E+00  0.1400E+02
   7.400  0.5338E+00  0.1401E+02
   7.410  0.5338E+00  0.1402E+02
   7.420  0.5303E+00  0.1402E+02
   7.430  0.5303E+00  0.1403E+02
   7.440  0.5303E+00  0.1403E+02
   7.450  0.5303E+00  0.1404E+02
   7.460  0.5303E+00  0.1404E+02
   7.470  0.5303E+00  0.1405E+02
   7.480  0.5303E+00  0.1405E+02
   7.490  0.5303E+00  0.1406E+02
   7.500  0.5303E+00  0.1406E+02
   7.510  0.5303E+00  0.1407E+02
   7.520  0.5303E+00  0.1407E+02
   7.530  0.5303E+00  0.1408E+02
   7.540  0.5303E+00  0.1408E+02
   7.550  0.5303E+00  0.1409E+02
   7.560  0.5303E+00  0.1409E+02
   7.570  0.5246E+00  0.1410E+02
   7.580  0.5246E+00  0.1411E+02
   7.590  0.5246E+00  0.1411E+02
   7.600  0.5194E+00  0.1412E+02
   7.610  0.5194E+00  0.1412E+02
   7.620  0.5194E+00  0.1413E+02
   7.630  0.5194E+00  0.1413E+02
   7.640  0.5194E+00  0.1414E+02
   7.650  0.5194E+00  0.1414E+02
   7.660  0.5194E+00  0.1415E+02
   7.670  0.5194E+00  0.1415E+02
   7.680  0.5194E+00  0.1416E+02
   7.690  0.5194E+00  0.1416E+02
   7.700  0.5194E+00  0.1417E+02
   7.710  0.5194E+00  0.1417E+02
   7.720  0.5194E+00  0.1418E+02
   7.730  0.5194E+00  0.1418E+02
   7.740  0.5194E+00  0.1419E+02
   7.750  0.5194E+00  0.1419E+02
   7.760  0.5194E+00  0.1420E+02
   7.770  0.5194E+00  0.1420E+02
   7.780  0.5194E+00  0.1421E+02
   7.790  0.5194E+00  0.1421E+02
   7.800  0.5194E+00  0.1422E+02
   7.810  0.5147E+00  0.1422E+02
   7.820  0.5147E+00  0.1423E+02
   7.830  0.5147E+00  0.1423E+02
   7.840  0.5147E+00  0.1424E+02
   7.850  0.5147E+00  0.1425E+02
   7.860  0.5147E+00  0.1425E+02
   7.870  0.5147E+00  0.1426E+02
   7.880  0.5147E+00  0.1426E+02
   7.890  0.5147E+00  0.1427E+02
   7.900  0.5147E+00  0.1427E+02
   7.910  0.5147E+00  0.1428E+02
   7.920  0.5147E+00  0.1428E+02
   7.930  0.5147E+00  0.1429E+02
   7.940  0.5147E+00  0.1429E+02
   7.950  0.5147E+00  0.1430E+02
   7.960  0.5147E+00  0.1430E+02
   7.970  0.5083E+00  0.1431E+02
   7.980  0.5083E+00  0.1431E+02
   7.990  0.5083E+00  0.1432E+02
   8.000  0.5083E+00  0.1432E+02
   8.010  0.5083E+00  0.1433E+02
   8.020  0.5083E+00  0.1433E+02
   8.030  0.5083E+00  0.1434E+02
   8.040  0.5083E+00  0.1434E+02
   8.050  0.5083E+00  0.1435E+02
   8.060  0.5051E+00  0.1435E+02
   8.070  0.5000E+00  0.1436E+02
   8.080  0.5000E+00  0.1436E+02
   8.090  0.5000E+00  0.1437E+02
   8.100  0.5000E+00  0.1437E+02
   8.110  0.5000E+00  0.1438E+02
   8.120  0.4953E+00  0.1438E+02
   8.130  0.4953E+00  0.1439E+02
   8.140  0.4953E+00  0.1439E+02
   8.150  0.4953E+00  0.1440E+02
   8.160  0.4953E+00  0.1440E+02
   8.170  0.4953E+00  0.1441E+02
   8.180  0.4953E+00  0.1441E+02
   8.190  0.4953E+00  0.1442E+02
   8.200  0.4953E+00  0.1442E+02
   8.210  0.4953E+00  0.1443E+02
   8.220  0.4953E+00  0.1443E+02
   8.230  0.4953E+00  0.1444E+02
   8.240  0.4953E+00  0.1444E+02
   8.250  0.4953E+00  0.1445E+02
   8.260  0.4953E+00  0.1445E+02
   8.270  0.4953E+00  0.1446E+02
   8.280  0.4953E+00  0.1446E+02
   8.290  0.4953E+00  0.1447E+02
   8.300  0.4953E+00  0.1447E+02
   8.310  0.4953E+00  0.1448E+02
   8.320  0.4953E+00  0.1448E+02
   8.330  0.4953E+00  0.1449E+02
   8.340  0.4953E+00  0.1449E+02
   8.350  0.4953E+00  0.1450E+02
   8.360  0.4911E+00  0.1450E+02
   8.370  0.4911E+00  0.1451E+02
   8.380  0.4911E+00  0.1451E+02
   8.390  0.4911E+00  0.1452E+02
   8.400  0.4911E+00  0.1452E+02
   8.410  0.4911E+00  0.1453E+02
   8.420  0.4911E+00  0.1453E+02
   8.430  0.4911E+00  0.1454E+02
   8.440  0.4911E+00  0.1454E+02
   8.450  0.4911E+00  0.1455E+02
   8.460  0.4911E+00  0.1455E+02
   8.470  0.4911E+00  0.1456E+02
   8.480  0.4911E+00  0.1456E+02
   8.490  0.4911E+00  0.1457E+02
   8.500  0.4911E+00  0.1457E+02
   8.510  0.4911E+00  0.1458E+02
   8.520  0.4911E+00  0.1458E+02
   8.530  0.4911E+00  0.1459E+02
   8.540  0.4911E+00  0.1459E+02
   8.550  0.4911E+00  0.1459E+02
   8.560  0.4911E+00  0.1460E+02
   8.570  0.4911E+00  0.1460E+02
   8.580  0.4911E+00  0.1461E+02
   8.590  0.4918E+00  0.1461E+02
   8.600  0.4918E+00  0.1462E+02
   8.610  0.4918E+00  0.1462E+02
   8.620  0.4918E+00  0.1463E+02
   8.630  0.4859E+00  0.1463E+02
   8.640  0.4859E+00  0.1464E+02
   8.650  0.4859E+00  0.1464E+02
   8.660  0.4859E+00  0.1465E+02
   8.670  0.4859E+00  0.1465E+02
   8.680  0.4817E+00  0.1466E+02
   8.690  0.4817E+00  0.1466E+02
   8.700  0.4817E+00  0.1467E+02
   8.710  0.4817E+00  0.1467E+02
   8.720  0.4817E+00  0.1468E+02
   8.730  0.4787E+00  0.1468E+02
   8.740  0.4787E+00  0.1469E+02
   8.750  0.4787E+00  0.1469E+02
   8.760  0.4787E+00  0.1470E+02
   8.770  0.4787E+00  0.1470E+02
   8.780  0.4787E+00  0.1471E+02
   8.790  0.4787E+00  0.1471E+02
   8.800  0.4787E+00  0.1472E+02
   8.810  0.4787E+00  0.1472E+02
   8.820  0.4787E+00  0.1473E+02
   8.830  0.4787E+00  0.1473E+02
   8.840  0.4787E+00  0.1474E+02
   8.850  0.4787E+00  0.1474E+02
   8.860  0.4787E+00  0.1474E+02
   8.870  0.4787E+00  0.1475E+02
   8.880  0.4787E+00  0.1475E+02
   8.890  0.4787E+00  0.1476E+02
   8.900  0.4787E+00  0.1476E+02
   8.910  0.4787E+00  0.1477E+02
   8.920  0.4787E+00  0.1477E+02
   8.930  0.4787E+00  0.1478E+02
   8.940  0.4787E+00  0.1478E+02
   8.950  0.4749E+00  0.1479E+02
   8.960  0.4749E+00  0.1479E+02
   8.970  0.4749E+00  0.1480E+02
   8.980  0.4749E+00  0.1480E+02
   8.990  0.4749E+00  0.1481E+02
   9.000  0.4749E+00  0.1481E+02
   9.010  0.4749E+00  0.1482E+02
   9.020  0.4749E+00  0.1482E+02
   9.030  0.4749E+00  0.1483E+02
   9.040  0.4749E+00  0.1483E+02
   9.050  0.4749E+00  0.1484E+02
   9.060  0.4749E+00  0.1484E+02
   9.070  0.4749E+00  0.1484E+02
   9.080  0.4749E+00  0.1485E+02
   9.090  0.4749E+00  0.1485E+02
   9.100  0.4749E+00  0.1486E+02
   9.110  0.5252E+00  0.1486E+02
   9.120  0.5252E+00  0.1487E+02
   9.130  0.5252E+00  0.1487E+02
   9.140  0.5252E+00  0.1488E+02
   9.150  0.5252E+00  0.1488E+02
   9.160  0.5252E+00  0.1489E+02
   9.170  0.5252E+00  0.1490E+02
   9.180  0.5252E+00  0.1490E+02
   9.190  0.5252E+00  0.1491E+02
   9.200  0.5252E+00  0.1491E+02
   9.210  0.5252E+00  0.1492E+02
   9.220  0.5252E+00  0.1492E+02
   9.230  0.5252E+00  0.1493E+02
   9.240  0.5252E+00  0.1493E+02
   9.250  0.5252E+00  0.1494E+02
   9.260  0.5406E+00  0.1494E+02
   9.270  0.5406E+00  0.1495E+02
   9.280  0.5406E+00  0.1495E+02
   9.290  0.5406E+00  0.1496E+02
   9.300  0.5406E+00  0.1496E+02
   9.310  0.5406E+00  0.1497E+02
   9.320  0.5352E+00  0.1498E+02
   9.330  0.5352E+00  0.1498E+02
   9.340  0.5352E+00  0.1499E+02
   9.350  0.5352E+00  0.1499E+02
   9.360  0.5352E+00  0.1500E+02
   9.370  0.5352E+00  0.1500E+02
   9.380  0.5352E+00  0.1501E+02
   9.390  0.5352E+00  0.1501E+02
   9.400  0.5352E+00  0.1502E+02
   9.410  0.5352E+00  0.1502E+02
   9.420  0.5325E+00  0.1503E+02
   9.430  0.5325E+00  0.1503E+02
   9.440  0.5325E+00  0.1504E+02
   9.450  0.5032E+00  0.1504E+02
   9.460  0.5032E+00  0.1505E+02
   9.470  0.5032E+00  0.1505E+02
   9.480  0.5032E+00  0.1506E+02
   9.490  0.5032E+00  0.1506E+02
   9.500  0.5032E+00  0.1507E+02
   9.510  0.5032E+00  0.1507E+02
   9.520  0.5032E+00  0.1508E+02
   9.530  0.5032E+00  0.1508E+02
   9.540  0.5032E+00  0.1509E+02
   9.550  0.5032E+00  0.1509E+02
   9.560  0.5247E+00  0.1510E+02
   9.570  0.5247E+00  0.1511E+02
   9.580  0.5247E+00  0.1511E+02
   9.590  0.5247E+00  0.1512E+02
   9.600  0.5247E+00  0.1512E+02
   9.610  0.5247E+00  0.1513E+02
   9.620  0.5247E+00  0.1513E+02
   9.630  0.5247E+00  0.1514E+02
   9.640  0.5247E+00  0.1514E+02
   9.650  0.5247E+00  0.1515E+02
   9.660  0.5247E+00  0.1515E+02
   9.670  0.5247E+00  0.1516E+02
   9.680  0.5247E+00  0.1516E+02
   9.690  0.5247E+00  0.1517E+02
   9.700  0.5247E+00  0.1517E+02
   9.710  0.5247E+00  0.1518E+02
   9.720  0.5247E+00  0.1518E+02
   9.730  0.5247E+00  0.1519E+02
   9.740  0.5247E+00  0.1519E+02
   9.750  0.5247E+00  0.1520E+02
   9.760  0.5370E+00  0.1521E+02
   9.770  0.5370E+00  0.1521E+02
   9.780  0.5370E+00  0.1522E+02
   9.790  0.5370E+00  0.1522E+02
   9.800  0.5370E+00  0.1523E+02
   9.810  0.5370E+00  0.1523E+02
   9.820  0.5370E+00  0.1524E+02
   9.830  0.5370E+00  0.1524E+02
   9.840  0.5370E+00  0.1525E+02
   9.850  0.5370E+00  0.1525E+02
   9.860  0.5370E+00  0.1526E+02
   9.870  0.4981E+00  0.1526E+02
   9.880  0.4981E+00  0.1527E+02
   9.890  0.4981E+00  0.1527E+02
   9.900  0.4981E+00  0.1528E+02
   9.910  0.4981E+00  0.1528E+02
   9.920  0.4981E+00  0.1529E+02
   9.930  0.4981E+00  0.1529E+02
   9.940  0.4981E+00  0.1530E+02
   9.950  0.4981E+00  0.1530E+02
   9.960  0.4981E+00  0.1531E+02
   9.970  0.4981E+00  0.1531E+02
   9.980  0.4981E+00  0.1532E+02
   9.990  0.4981E+00  0.1532E+02
  10.000  0.4981E+00  0.1533E+02
  10.010  0.4981E+00  0.1533E+02
  10.020  0.4981E+00  0.1534E+02
  10.030  0.4981E+00  0.1534E+02
  10.040  0.5620E+00  0.1535E+02
  10.050  0.5620E+00  0.1535E+02
  10.060  0.5620E+00  0.1536E+02
  10.070  0.5620E+00  0.1537E+02
  10.080  0.5620E+00  0.1537E+02
  10.090  0.5620E+00  0.1538E+02
  10.100  0.5620E+00  0.1538E+02
  10.110  0.5620E+00  0.1539E+02
  10.120  0.5620E+00  0.1539E+02
  10.130  0.5620E+00  0.1540E+02
  10.140  0.5594E+00  0.1541E+02
  10.150  0.5594E+00  0.1541E+02
  10.160  0.5594E+00  0.1542E+02
  10.170  0.5594E+00  0.1542E+02
  10.180  0.5594E+00  0.1543E+02
  10.190  0.5594E+00  0.1543E+02
  10.200  0.5212E+00  0.1544E+02
  10.210  0.5212E+00  0.1544E+02
  10.220  0.5212E+00  0.1545E+02
  10.230  0.5212E+00  0.1545E+02
  10.240  0.5212E+00  0.1546E+02
  10.250  0.5212E+00  0.1546E+02
  10.260  0.5212E+00  0.1547E+02
  10.270  0.5212E+00  0.1548E+02
  10.280  0.5212E+00  0.1548E+02
  10.290  0.5212E+00  0.1549E+02
  10.300  0.5212E+00  0.1549E+02
  10.310  0.5212E+00  0.1550E+02
  10.320  0.5212E+00  0.1550E+02
  10.330  0.4971E+00  0.1551E+02
  10.340  0.4971E+00  0.1551E+02
  10.350  0.4971E+00  0.1552E+02
  10.360  0.4971E+00  0.1552E+02
  10.370  0.4971E+00  0.1553E+02
  10.380  0.4971E+00  0.1553E+02
  10.390  0.4971E+00  0.1554E+02
  10.400  0.4971E+00  0.1554E+02
  10.410  0.4971E+00  0.1555E+02
  10.420  0.4971E+00  0.1555E+02
  10.430  0.4971E+00  0.1556E+02
  10.440  0.4971E+00  0.1556E+02
  10.450  0.4971E+00  0.1557E+02
  10.460  0.4971E+00  0.1557E+02
  10.470  0.4971E+00  0.1558E+02
  10.480  0.4971E+00  0.1558E+02
  10.490  0.4971E+00  0.1559E+02
  10.500  0.4971E+00  0.1559E+02
  10.510  0.4939E+00  0.1560E+02
  10.520  0.4939E+00  0.1560E+02
  10.530  0.4939E+00  0.1561E+02
  10.540  0.4939E+00  0.1561E+02
  10.550  0.4939E+00  0.1562E+02
  10.560  0.4939E+00  0.1562E+02
  10.570  0.4939E+00  0.1563E+02
  10.580  0.4939E+00  0.1563E+02
  10.590  0.4939E+00  0.1564E+02
  10.600  0.4939E+00  0.1564E+02
  10.610  0.4939E+00  0.1565E+02
  10.620  0.4939E+00  0.1565E+02
  10.630  0.4939E+00  0.1565E+02
  10.640  0.4939E+00  0.1566E+02
  10.650  0.4939E+00  0.1566E+02
  10.660  0.4658E+00  0.1567E+02
  10.670  0.4658E+00  0.1567E+02
  10.680  0.4658E+00  0.1568E+02
  10.690  0.4658E+00  0.1568E+02
  10.700  0.4658E+00  0.1569E+02
  10.710  0.4658E+00  0.1569E+02
  10.720  0.4658E+00  0.1570E+02
  10.730  0.4658E+00  0.1570E+02
  10.740  0.4658E+00  0.1571E+02
  10.750  0.4658E+00  0.1571E+02
  10.760  0.4658E+00  0.1572E+02
  10.770  0.4658E+00  0.1572E+02
  10.780  0.4612E+00  0.1573E+02
  10.790  0.4612E+00  0.1573E+02
  10.800  0.4612E+00  0.1573E+02
  10.810  0.4612E+00  0.1574E+02
  10.820  0.4612E+00  0.1574E+02
  10.830  0.4612E+00  0.1575E+02
  10.840  0.4612E+00  0.1575E+02
  10.850  0.4612E+00  0.1576E+02
  10.860  0.4582E+00  0.1576E+02
  10.870  0.4582E+00  0.1577E+02
  10.880  0.4582E+00  0.1577E+02
  10.890  0.4559E+00  0.1578E+02
  10.900  0.4559E+00  0.1578E+02
  10.910  0.4559E+00  0.1579E+02
  10.920  0.4559E+00  0.1579E+02
  10.930  0.4559E+00  0.1579E+02
  10.940  0.4559E+00  0.1580E+02
  10.950  0.4559E+00  0.1580E+02
  10.960  0.4559E+00  0.1581E+02
  10.970  0.4559E+00  0.1581E+02
  10.980  0.4559E+00  0.1582E+02
  10.990  0.4559E+00  0.1582E+02
  11.000  0.4559E+00  0.1583E+02
  11.010  0.4559E+00  0.1583E+02
  11.020  0.4559E+00  0.1584E+02
  11.030  0.4559E+00  0.1584E+02
  11.040  0.4559E+00  0.1584E+02
  11.050  0.4559E+00  0.1585E+02
  11.060  0.4559E+00  0.1585E+02
  11.070  0.4559E+00  0.1586E+02
  11.080  0.4350E+00  0.1586E+02
  11.090  0.4350E+00  0.1587E+02
  11.100  0.4350E+00  0.1587E+02
  11.110  0.4350E+00  0.1588E+02
  11.120  0.4350E+00  0.1588E+02
  11.130  0.4350E+00  0.1588E+02
  11.140  0.4350E+00  0.1589E+02
  11.150  0.4350E+00  0.1589E+02
  11.160  0.4350E+00  0.1590E+02
  11.170  0.4350E+00  0.1590E+02
  11.180  0.4320E+00  0.1591E+02
  11.190  0.4320E+00  0.1591E+02
  11.200  0.4320E+00  0.1591E+02
  11.210  0.4320E+00  0.1592E+02
  11.220  0.4320E+00  0.1592E+02
  11.230  0.4320E+00  0.1593E+02
  11.240  0.4320E+00  0.1593E+02
  11.250  0.4320E+00  0.1594E+02
  11.260  0.4320E+00  0.1594E+02
  11.270  0.4320E+00  0.1595E+02
  11.280  0.4320E+00  0.1595E+02
  11.290  0.4320E+00  0.1595E+02
  11.300  0.4320E+00  0.1596E+02
  11.310  0.4320E+00  0.1596E+02
  11.320  0.4320E+00  0.1597E+02
  11.330  0.4320E+00  0.1597E+02
  11.340  0.4320E+00  0.1598E+02
  11.350  0.4320E+00  0.1598E+02
  11.360  0.4320E+00  0.1598E+02
  11.370  0.4320E+00  0.1599E+02
  11.380  0.4320E+00  0.1599E+02
  11.390  0.4320E+00  0.1600E+02
  11.400  0.4320E+00  0.1600E+02
  11.410  0.4320E+00  0.1601E+02
  11.420  0.4320E+00  0.1601E+02
  11.430  0.4320E+00  0.1601E+02
  11.440  0.4320E+00  0.1602E+02
  11.450  0.4320E+00  0.1602E+02
  11.460  0.4320E+00  0.1603E+02
  11.470  0.4320E+00  0.1603E+02
  11.480  0.4320E+00  0.1604E+02
  11.490  0.4320E+00  0.1604E+02
  11.500  0.4320E+00  0.1604E+02
  11.510  0.4320E+00  0.1605E+02
  11.520  0.4320E+00  0.1605E+02
  11.530  0.4320E+00  0.1606E+02
  11.540  0.4320E+00  0.1606E+02
  11.550  0.4278E+00  0.1607E+02
  11.560  0.4251E+00  0.1607E+02
  11.570  0.4251E+00  0.1607E+02
  11.580  0.4116E+00  0.1608E+02
  11.590  0.4116E+00  0.1608E+02
  11.600  0.4116E+00  0.1609E+02
  11.610  0.4116E+00  0.1609E+02
  11.620  0.4116E+00  0.1610E+02
  11.630  0.4116E+00  0.1610E+02
  11.640  0.4116E+00  0.1610E+02
  11.650  0.4116E+00  0.1611E+02
  11.660  0.4116E+00  0.1611E+02
  11.670  0.4094E+00  0.1612E+02
  11.680  0.4094E+00  0.1612E+02
  11.690  0.4094E+00  0.1612E+02
  11.700  0.4094E+00  0.1613E+02
  11.710  0.4094E+00  0.1613E+02
  11.720  0.4094E+00  0.1614E+02
  11.730  0.4094E+00  0.1614E+02
  11.740  0.4094E+00  0.1614E+02
  11.750  0.4094E+00  0.1615E+02
  11.760  0.4094E+00  0.1615E+02
  11.770  0.4094E+00  0.1616E+02
  11.780  0.4094E+00  0.1616E+02
  11.790  0.4094E+00  0.1616E+02
  11.800  0.4094E+00  0.1617E+02
  11.810  0.4094E+00  0.1617E+02
  11.820  0.4094E+00  0.1618E+02
  11.830  0.4094E+00  0.1618E+02
  11.840  0.4094E+00  0.1619E+02
  11.850  0.4094E+00  0.1619E+02
  11.860  0.4094E+00  0.1619E+02
  11.870  0.4066E+00  0.1620E+02
  11.880  0.4066E+00  0.1620E+02
  11.890  0.4066E+00  0.1621E+02
  11.900  0.4066E+00  0.1621E+02
  11.910  0.4066E+00  0.1621E+02
  11.920  0.4066E+00  0.1622E+02
  11.930  0.4066E+00  0.1622E+02
  11.940  0.4066E+00  0.1623E+02
  11.950  0.4066E+00  0.1623E+02
  11.960  0.4066E+00  0.1623E+02
  11.970  0.4066E+00  0.1624E+02
  11.980  0.4066E+00  0.1624E+02
  11.990  0.4066E+00  0.1625E+02
  12.000  0.4066E+00  0.1625E+02
  12.010  0.4066E+00  0.1625E+02
  12.020  0.4066E+00  0.1626E+02
  12.030  0.4066E+00  0.1626E+02
  12.040  0.4066E+00  0.1627E+02
  12.050  0.4066E+00  0.1627E+02
  12.060  0.4066E+00  0.1627E+02
  12.070  0.4066E+00  0.1628E+02
  12.080  0.4066E+00  0.1628E+02
  12.090  0.4066E+00  0.1629E+02
  12.100  0.4066E+00  0.1629E+02
  12.110  0.4066E+00  0.1630E+02
  12.120  0.4066E+00  0.1630E+02
  12.130  0.4066E+00  0.1630E+02
  12.140  0.4066E+00  0.1631E+02
  12.150  0.4066E+00  0.1631E+02
  12.160  0.4066E+00  0.1632E+02
  12.170  0.3979E+00  0.1632E+02
  12.180  0.3979E+00  0.1632E+02
  12.190  0.3979E+00  0.1633E+02
  12.200  0.3979E+00  0.1633E+02
  12.210  0.3979E+00  0.1634E+02
  12.220  0.3979E+00  0.1634E+02
  12.230  0.3979E+00  0.1634E+02
  12.240  0.3979E+00  0.1635E+02
  12.250  0.3979E+00  0.1635E+02
  12.260  0.3979E+00  0.1636E+02
  12.270  0.3979E+00  0.1636E+02
  12.280  0.3953E+00  0.1636E+02
  12.290  0.3953E+00  0.1637E+02
  12.300  0.3953E+00  0.1637E+02
  12.310  0.3953E+00  0.1638E+02
  12.320  0.3953E+00  0.1638E+02
  12.330  0.3953E+00  0.1638E+02
  12.340  0.3953E+00  0.1639E+02
  12.350  0.3915E+00  0.1639E+02
  12.360  0.3915E+00  0.1639E+02
  12.370  0.3915E+00  0.1640E+02
  12.380  0.3915E+00  0.1640E+02
  12.390  0.3915E+00  0.1641E+02
  12.400  0.3915E+00  0.1641E+02
  12.410  0.3915E+00  0.1641E+02
  12.420  0.3915E+00  0.1642E+02
  12.430  0.3915E+00  0.1642E+02
  12.440  0.3915E+00  0.1643E+02
  12.450  0.3915E+00  0.1643E+02
  12.460  0.3915E+00  0.1643E+02
  12.470  0.3915E+00  0.1644E+02
  12.480  0.3895E+00  0.1644E+02
  12.490  0.3895E+00  0.1645E+02
  12.500  0.3895E+00  0.1645E+02
  12.510  0.3895E+00  0.1645E+02
  12.520  0.3895E+00  0.1646E+02
  12.530  0.3895E+00  0.1646E+02
  12.540  0.3895E+00  0.1647E+02
  12.550  0.3895E+00  0.1647E+02
  12.560  0.3895E+00  0.1647E+02
  12.570  0.3895E+00  0.1648E+02
  12.580  0.3895E+00  0.1648E+02
  12.590  0.3895E+00  0.1648E+02
  12.600  0.3870E+00  0.1649E+02
  12.610  0.3870E+00  0.1649E+02
  12.620  0.3870E+00  0.1650E+02
  12.630  0.3870E+00  0.1650E+02
  12.640  0.3870E+00  0.1650E+02
  12.650  0.3870E+00  0.1651E+02
  12.660  0.3870E+00  0.1651E+02
  12.670  0.3870E+00  0.1652E+02
  12.680  0.3870E+00  0.1652E+02
  12.690  0.3870E+00  0.1652E+02
  12.700  0.3870E+00  0.1653E+02
  12.710  0.3870E+00  0.1653E+02
  12.720  0.3870E+00  0.1653E+02
  12.730  0.3870E+00  0.1654E+02
  12.740  0.3870E+00  0.1654E+02
  12.750  0.3870E+00  0.1655E+02
  12.760  0.3870E+00  0.1655E+02
  12.770  0.3870E+00  0.1655E+02
  12.780  0.3870E+00  0.1656E+02
  12.790  0.3870E+00  0.1656E+02
  12.800  0.3870E+00  0.1657E+02
  12.810  0.3870E+00  0.1657E+02
  12.820  0.3810E+00  0.1657E+02
  12.830  0.3810E+00  0.1658E+02
  12.840  0.3810E+00  0.1658E+02
  12.850  0.3810E+00  0.1659E+02
  12.860  0.3810E+00  0.1659E+02
  12.870  0.3810E+00  0.1659E+02
  12.880  0.3810E+00  0.1660E+02
  12.890  0.3810E+00  0.1660E+02
  12.900  0.3810E+00  0.1660E+02
  12.910  0.3810E+00  0.1661E+02
  12.920  0.3810E+00  0.1661E+02
  12.930  0.3810E+00  0.1662E+02
  12.940  0.3810E+00  0.1662E+02
  12.950  0.3810E+00  0.1662E+02
  12.960  0.3810E+00  0.1663E+02
  12.970  0.3810E+00  0.1663E+02
  12.980  0.3810E+00  0.1663E+02
  12.990  0.3810E+00  0.1664E+02
  13.000  0.3810E+00  0.1664E+02
  13.010  0.3810E+00  0.1665E+02
  13.020  0.3810E+00  0.1665E+02
  13.030  0.3787E+00  0.1665E+02
  13.040  0.3787E+00  0.1666E+02
  13.050  0.3787E+00  0.1666E+02
  13.060  0.3787E+00  0.1666E+02
  13.070  0.3787E+00  0.1667E+02
  13.080  0.3787E+00  0.1667E+02
  13.090  0.3787E+00  0.1668E+02
  13.100  0.3787E+00  0.1668E+02
  13.110  0.3787E+00  0.1668E+02
  13.120  0.3787E+00  0.1669E+02
  13.130  0.3787E+00  0.1669E+02
  13.140  0.3787E+00  0.1670E+02
  13.150  0.3787E+00  0.1670E+02
  13.160  0.3787E+00  0.1670E+02
  13.170  0.3752E+00  0.1671E+02
  13.180  0.3752E+00  0.1671E+02
  13.190  0.3752E+00  0.1671E+02
  13.200  0.3752E+00  0.1672E+02
  13.210  0.3752E+00  0.1672E+02
  13.220  0.3752E+00  0.1673E+02
  13.230  0.3752E+00  0.1673E+02
  13.240  0.3752E+00  0.1673E+02
  13.250  0.3752E+00  0.1674E+02
  13.260  0.3752E+00  0.1674E+02
  13.270  0.3752E+00  0.1674E+02
  13.280  0.3752E+00  0.1675E+02
  13.290  0.3752E+00  0.1675E+02
  13.300  0.3752E+00  0.1676E+02
  13.310  0.3733E+00  0.1676E+02
  13.320  0.3733E+00  0.1676E+02
  13.330  0.3733E+00  0.1677E+02
  13.340  0.3733E+00  0.1677E+02
  13.350  0.3710E+00  0.1677E+02
  13.360  0.3710E+00  0.1678E+02
  13.370  0.3710E+00  0.1678E+02
  13.380  0.3710E+00  0.1679E+02
  13.390  0.3710E+00  0.1679E+02
  13.400  0.3710E+00  0.1679E+02
  13.410  0.3710E+00  0.1680E+02
  13.420  0.3710E+00  0.1680E+02
  13.430  0.3710E+00  0.1680E+02
  13.440  0.3710E+00  0.1681E+02
  13.450  0.3710E+00  0.1681E+02
  13.460  0.3710E+00  0.1681E+02
  13.470  0.3710E+00  0.1682E+02
  13.480  0.3710E+00  0.1682E+02
  13.490  0.3710E+00  0.1683E+02
  13.500  0.3710E+00  0.1683E+02
  13.510  0.3710E+00  0.1683E+02
  13.520  0.3667E+00  0.1684E+02
  13.530  0.3667E+00  0.1684E+02
  13.540  0.3667E+00  0.1684E+02
  13.550  0.3667E+00  0.1685E+02
  13.560  0.3667E+00  0.1685E+02
  13.570  0.3667E+00  0.1686E+02
  13.580  0.3667E+00  0.1686E+02
  13.590  0.3667E+00  0.1686E+02
  13.600  0.3667E+00  0.1687E+02
  13.610  0.3667E+00  0.1687E+02
  13.620  0.3667E+00  0.1687E+02
  13.630  0.3667E+00  0.1688E+02
  13.640  0.3667E+00  0.1688E+02
  13.650  0.3667E+00  0.1688E+02
  13.660  0.3667E+00  0.1689E+02
  13.670  0.3667E+00  0.1689E+02
  13.680  0.3667E+00  0.1690E+02
  13.690  0.3667E+00  0.1690E+02
  13.700  0.3667E+00  0.1690E+02
  13.710  0.3667E+00  0.1691E+02
  13.720  0.3667E+00  0.1691E+02
  13.730  0.3667E+00  0.1691E+02
  13.740  0.3667E+00  0.1692E+02
  13.750  0.3667E+00  0.1692E+02
  13.760  0.3667E+00  0.1693E+02
  13.770  0.3667E+00  0.1693E+02
  13.780  0.3667E+00  0.1693E+02
  13.790  0.3667E+00  0.1694E+02
  13.800  0.3667E+00  0.1694E+02
  13.810  0.3645E+00  0.1694E+02
  13.820  0.3645E+00  0.1695E+02
  13.830  0.3645E+00  0.1695E+02
  13.840  0.3645E+00  0.1695E+02
  13.850  0.3645E+00  0.1696E+02
  13.860  0.3645E+00  0.1696E+02
  13.870  0.3645E+00  0.1697E+02
  13.880  0.3645E+00  0.1697E+02
  13.890  0.3645E+00  0.1697E+02
  13.900  0.3645E+00  0.1698E+02
  13.910  0.3645E+00  0.1698E+02
  13.920  0.3645E+00  0.1698E+02
  13.930  0.3645E+00  0.1699E+02
  13.940  0.3645E+00  0.1699E+02
  13.950  0.3645E+00  0.1699E+02
  13.960  0.3645E+00  0.1700E+02
  13.970  0.3645E+00  0.1700E+02
  13.980  0.3645E+00  0.1701E+02
  13.990  0.3645E+00  0.1701E+02
  14.000  0.3645E+00  0.1701E+02
  14.010  0.3645E+00  0.1702E+02
  14.020  0.3616E+00  0.1702E+02
  14.030  0.3616E+00  0.1702E+02
  14.040  0.3616E+00  0.1703E+02
  14.050  0.3616E+00  0.1703E+02
  14.060  0.3616E+00  0.1703E+02
  14.070  0.3616E+00  0.1704E+02
  14.080  0.3616E+00  0.1704E+02
  14.090  0.3616E+00  0.1705E+02
  14.100  0.3616E+00  0.1705E+02
  14.110  0.3616E+00  0.1705E+02
  14.120  0.3594E+00  0.1706E+02
  14.130  0.3594E+00  0.1706E+02
  14.140  0.3594E+00  0.1706E+02
  14.150  0.3594E+00  0.1707E+02
  14.160  0.3594E+00  0.1707E+02
  14.170  0.3576E+00  0.1707E+02
  14.180  0.3576E+00  0.1708E+02
  14.190  0.3576E+00  0.1708E+02
  14.200  0.3576E+00  0.1708E+02
  14.210  0.3576E+00  0.1709E+02
  14.220  0.3576E+00  0.1709E+02
  14.230  0.3576E+00  0.1710E+02
  14.240  0.3576E+00  0.1710E+02
  14.250  0.3576E+00  0.1710E+02
  14.260  0.3576E+00  0.1711E+02
  14.270  0.3576E+00  0.1711E+02
  14.280  0.3543E+00  0.1711E+02
  14.290  0.3543E+00  0.1712E+02
  14.300  0.3543E+00  0.1712E+02
  14.310  0.3543E+00  0.1712E+02
  14.320  0.3543E+00  0.1713E+02
  14.330  0.3543E+00  0.1713E+02
  14.340  0.3543E+00  0.1713E+02
  14.350  0.3543E+00  0.1714E+02
  14.360  0.3543E+00  0.1714E+02
  14.370  0.3543E+00  0.1715E+02
  14.380  0.3543E+00  0.1715E+02
  14.390  0.3543E+00  0.1715E+02
  14.400  0.3543E+00  0.1716E+02
  14.410  0.3543E+00  0.1716E+02
  14.420  0.3543E+00  0.1716E+02
  14.430  0.3543E+00  0.1717E+02
  14.440  0.3543E+00  0.1717E+02
  14.450  0.3543E+00  0.1717E+02
  14.460  0.3543E+00  0.1718E+02
  14.470  0.3543E+00  0.1718E+02
  14.480  0.3543E+00  0.1718E+02
  14.490  0.3543E+00  0.1719E+02
  14.500  0.3543E+00  0.1719E+02
  14.510  0.3543E+00  0.1719E+02
  14.520  0.3543E+00  0.1720E+02
  14.530  0.3543E+00  0.1720E+02
  14.540  0.3543E+00  0.1721E+02
  14.550  0.3543E+00  0.1721E+02
  14.560  0.3543E+00  0.1721E+02
  14.570  0.3543E+00  0.1722E+02
  14.580  0.3543E+00  0.1722E+02
  14.590  0.3543E+00  0.1722E+02
  14.600  0.3543E+00  0.1723E+02
  14.610  0.3522E+00  0.1723E+02
  14.620  0.3522E+00  0.1723E+02
  14.630  0.3522E+00  0.1724E+02
  14.640  0.3522E+00  0.1724E+02
  14.650  0.3522E+00  0.1724E+02
  14.660  0.3522E+00  0.1725E+02
  14.670  0.3522E+00  0.1725E+02
  14.680  0.3522E+00  0.1725E+02
  14.690  0.3522E+00  0.1726E+02
  14.700  0.3522E+00  0.1726E+02
  14.710  0.3522E+00  0.1727E+02
  14.720  0.3522E+00  0.1727E+02
  14.730  0.3522E+00  0.1727E+02
  14.740  0.3522E+00  0.1728E+02
  14.750  0.3522E+00  0.1728E+02
  14.760  0.3522E+00  0.1728E+02
  14.770  0.3522E+00  0.1729E+02
  14.780  0.3522E+00  0.1729E+02
  14.790  0.3522E+00  0.1729E+02
  14.800  0.3522E+00  0.1730E+02
  14.810  0.3522E+00  0.1730E+02
  14.820  0.3522E+00  0.1730E+02
  14.830  0.3522E+00  0.1731E+02
  14.840  0.3522E+00  0.1731E+02
  14.850  0.3522E+00  0.1731E+02
  14.860  0.3522E+00  0.1732E+02
  14.870  0.3522E+00  0.1732E+02
  14.880  0.3511E+00  0.1733E+02
  14.890  0.3501E+00  0.1733E+02
  14.900  0.3501E+00  0.1733E+02
  14.910  0.3501E+00  0.1734E+02
  14.920  0.3501E+00  0.1734E+02
  14.930  0.3480E+00  0.1734E+02
  14.940  0.3480E+00  0.1735E+02
  14.950  0.3480E+00  0.1735E+02
  14.960  0.3480E+00  0.1735E+02
  14.970  0.3480E+00  0.1736E+02
  14.980  0.3480E+00  0.1736E+02
  14.990  0.3480E+00  0.1736E+02
  15.000  0.3480E+00  0.1737E+02
  15.010  0.3480E+00  0.1737E+02
  15.020  0.3480E+00  0.1737E+02
  15.030  0.3480E+00  0.1738E+02
  15.040  0.3480E+00  0.1738E+02
  15.050  0.3480E+00  0.1738E+02
  15.060  0.3513E+00  0.1739E+02
  15.070  0.3436E+00  0.1739E+02
  15.080  0.3436E+00  0.1740E+02
  15.090  0.3436E+00  0.1740E+02
  15.100  0.3436E+00  0.1740E+02
  15.110  0.3436E+00  0.1741E+02
  15.120  0.3436E+00  0.1741E+02
  15.130  0.3436E+00  0.1741E+02
  15.140  0.3436E+00  0.1742E+02
  15.150  0.3436E+00  0.1742E+02
  15.160  0.3436E+00  0.1742E+02
  15.170  0.3436E+00  0.1743E+02
  15.180  0.3436E+00  0.1743E+02
  15.190  0.3436E+00  0.1743E+02
  15.200  0.3436E+00  0.1744E+02
  15.210  0.3436E+00  0.1744E+02
  15.220  0.3436E+00  0.1744E+02
  15.230  0.3436E+00  0.1745E+02
  15.240  0.3436E+00  0.1745E+02
  15.250  0.3436E+00  0.1745E+02
  15.260  0.3436E+00  0.1746E+02
  15.270  0.3436E+00  0.1746E+02
  15.280  0.3436E+00  0.1746E+02
  15.290  0.3436E+00  0.1747E+02
  15.300  0.3436E+00  0.1747E+02
  15.310  0.3436E+00  0.1747E+02
  15.320  0.3436E+00  0.1748E+02
  15.330  0.3436E+00  0.1748E+02
  15.340  0.3436E+00  0.1748E+02
  15.350  0.3436E+00  0.1749E+02
  15.360  0.3436E+00  0.1749E+02
  15.370  0.3436E+00  0.1749E+02
  15.380  0.3436E+00  0.1750E+02
  15.390  0.3436E+00  0.1750E+02
  15.400  0.3436E+00  0.1751E+02
  15.410  0.3436E+00  0.1751E+02
  15.420  0.3436E+00  0.1751E+02
  15.430  0.3436E+00  0.1752E+02
  15.440  0.3436E+00  0.1752E+02
  15.450  0.3417E+00  0.1752E+02
  15.460  0.3417E+00  0.1753E+02
  15.470  0.3417E+00  0.1753E+02
  15.480  0.3417E+00  0.1753E+02
  15.490  0.3417E+00  0.1754E+02
  15.500  0.3417E+00  0.1754E+02
  15.510  0.3417E+00  0.1754E+02
  15.520  0.3417E+00  0.1755E+02
  15.530  0.3417E+00  0.1755E+02
  15.540  0.3417E+00  0.1755E+02
  15.550  0.3417E+00  0.1756E+02
  15.560  0.3417E+00  0.1756E+02
  15.570  0.3417E+00  0.1756E+02
  15.580  0.3417E+00  0.1757E+02
  15.590  0.3417E+00  0.1757E+02
  15.600  0.3417E+00  0.1757E+02
  15.610  0.3417E+00  0.1758E+02
  15.620  0.3417E+00  0.1758E+02
  15.630  0.3417E+00  0.1758E+02
  15.640  0.3417E+00  0.1759E+02
  15.650  0.3417E+00  0.1759E+02
  15.660  0.3417E+00  0.1759E+02
  15.670  0.3417E+00  0.1760E+02
  15.680  0.3417E+00  0.1760E+02
  15.690  0.3417E+00  0.1760E+02
  15.700  0.3417E+00  0.1761E+02
  15.710  0.3417E+00  0.1761E+02
  15.720  0.3417E+00  0.1761E+02
  15.730  0.3417E+00  0.1762E+02
  15.740  0.3417E+00  0.1762E+02
  15.750  0.3417E+00  0.1762E+02
  15.760  0.3397E+00  0.1763E+02
  15.770  0.3391E+00  0.1763E+02
  15.780  0.3391E+00  0.1763E+02
  15.790  0.3391E+00  0.1764E+02
  15.800  0.3391E+00  0.1764E+02
  15.810  0.3391E+00  0.1765E+02
  15.820  0.3391E+00  0.1765E+02
  15.830  0.3391E+00  0.1765E+02
  15.840  0.3391E+00  0.1766E+02
  15.850  0.3391E+00  0.1766E+02
  15.860  0.3391E+00  0.1766E+02
  15.870  0.3391E+00  0.1767E+02
  15.880  0.3391E+00  0.1767E+02
  15.890  0.3391E+00  0.1767E+02
  15.900  0.3376E+00  0.1768E+02
  15.910  0.3376E+00  0.1768E+02
  15.920  0.3376E+00  0.1768E+02
  15.930  0.3376E+00  0.1769E+02
  15.940  0.3376E+00  0.1769E+02
  15.950  0.3376E+00  0.1769E+02
  15.960  0.3376E+00  0.1770E+02
  15.970  0.3376E+00  0.1770E+02
  15.980  0.3354E+00  0.1770E+02
  15.990  0.3354E+00  0.1771E+02
  16.000  0.3354E+00  0.1771E+02
  16.010  0.3354E+00  0.1771E+02
  16.020  0.3354E+00  0.1772E+02
  16.030  0.3354E+00  0.1772E+02
  16.040  0.3354E+00  0.1772E+02
  16.050  0.3354E+00  0.1773E+02
  16.060  0.3354E+00  0.1773E+02
  16.070  0.3354E+00  0.1773E+02
  16.080  0.3354E+00  0.1774E+02
  16.090  0.3354E+00  0.1774E+02
  16.100  0.3354E+00  0.1774E+02
  16.110  0.3354E+00  0.1775E+02
  16.120  0.3354E+00  0.1775E+02
  16.130  0.3354E+00  0.1775E+02
  16.140  0.3354E+00  0.1776E+02
  16.150  0.3354E+00  0.1776E+02
  16.160  0.3354E+00  0.1776E+02
  16.170  0.3354E+00  0.1777E+02
  16.180  0.3354E+00  0.1777E+02
  16.190  0.3354E+00  0.1777E+02
  16.200  0.3354E+00  0.1778E+02
  16.210  0.3354E+00  0.1778E+02
  16.220  0.3354E+00  0.1778E+02
  16.230  0.3354E+00  0.1779E+02
  16.240  0.3354E+00  0.1779E+02
  16.250  0.3354E+00  0.1779E+02
  16.260  0.3354E+00  0.1780E+02
  16.270  0.3354E+00  0.1780E+02
  16.280  0.3354E+00  0.1780E+02
  16.290  0.3354E+00  0.1781E+02
  16.300  0.3354E+00  0.1781E+02
  16.310  0.3336E+00  0.1781E+02
  16.320  0.3336E+00  0.1782E+02
  16.330  0.3336E+00  0.1782E+02
  16.340  0.3336E+00  0.1782E+02
  16.350  0.3336E+00  0.1783E+02
  16.360  0.3336E+00  0.1783E+02
  16.370  0.3336E+00  0.1783E+02
  16.380  0.3336E+00  0.1784E+02
  16.390  0.3336E+00  0.1784E+02
  16.400  0.3336E+00  0.1784E+02
  16.410  0.3336E+00  0.1785E+02
  16.420  0.3336E+00  0.1785E+02
  16.430  0.3336E+00  0.1785E+02
  16.440  0.3336E+00  0.1786E+02
  16.450  0.3336E+00  0.1786E+02
  16.460  0.3336E+00  0.1786E+02
  16.470  0.3336E+00  0.1787E+02
  16.480  0.3336E+00  0.1787E+02
  16.490  0.3336E+00  0.1787E+02
  16.500  0.3336E+00  0.1788E+02
  16.510  0.3336E+00  0.1788E+02
  16.520  0.3336E+00  0.1788E+02
  16.530  0.3336E+00  0.1789E+02
  16.540  0.3336E+00  0.1789E+02
  16.550  0.3336E+00  0.1789E+02
  16.560  0.3336E+00  0.1790E+02
  16.570  0.3336E+00  0.1790E+02
  16.580  0.3336E+00  0.1790E+02
  16.590  0.3336E+00  0.1791E+02
  16.600  0.3336E+00  0.1791E+02
  16.610  0.3336E+00  0.1791E+02
  16.620  0.3318E+00  0.1792E+02
  16.630  0.3318E+00  0.1792E+02
  16.640  0.3318E+00  0.1792E+02
  16.650  0.3318E+00  0.1793E+02
  16.660  0.3354E+00  0.1793E+02
  16.670  0.3354E+00  0.1793E+02
  16.680  0.3354E+00  0.1794E+02
  16.690  0.3354E+00  0.1794E+02
  16.700  0.3354E+00  0.1794E+02
  16.710  0.3354E+00  0.1795E+02
  16.720  0.3354E+00  0.1795E+02
  16.730  0.3354E+00  0.1795E+02
  16.740  0.3354E+00  0.1796E+02
  16.750  0.3354E+00  0.1796E+02
  16.760  0.3336E+00  0.1796E+02
  16.770  0.3336E+00  0.1797E+02
  16.780  0.3336E+00  0.1797E+02
  16.790  0.3336E+00  0.1797E+02
  16.800  0.3336E+00  0.1798E+02
  16.810  0.3336E+00  0.1798E+02
  16.820  0.3336E+00  0.1798E+02
  16.830  0.3336E+00  0.1799E+02
  16.840  0.3336E+00  0.1799E+02
  16.850  0.3336E+00  0.1799E+02
  16.860  0.3336E+00  0.1800E+02
  16.870  0.3336E+00  0.1800E+02
  16.880  0.3336E+00  0.1800E+02
  16.890  0.3336E+00  0.1801E+02
  16.900  0.3336E+00  0.1801E+02
  16.910  0.3336E+00  0.1801E+02
  16.920  0.3321E+00  0.1802E+02
  16.930  0.3321E+00  0.1802E+02
  16.940  0.3321E+00  0.1802E+02
  16.950  0.3321E+00  0.1803E+02
  16.960  0.3321E+00  0.1803E+02
  16.970  0.3321E+00  0.1803E+02
  16.980  0.3321E+00  0.1804E+02
  16.990  0.3321E+00  0.1804E+02
  17.000  0.3321E+00  0.1804E+02
  17.010  0.3321E+00  0.1805E+02
  17.020  0.3321E+00  0.1805E+02
  17.030  0.3321E+00  0.1805E+02
  17.040  0.3321E+00  0.1806E+02
  17.050  0.3321E+00  0.1806E+02
  17.060  0.3321E+00  0.1806E+02
  17.070  0.3321E+00  0.1807E+02
  17.080  0.3321E+00  0.1807E+02
  17.090  0.3321E+00  0.1807E+02
  17.100  0.3321E+00  0.1808E+02
  17.110  0.3321E+00  0.1808E+02
  17.120  0.3321E+00  0.1808E+02
  17.130  0.3321E+00  0.1809E+02
  17.140  0.3321E+00  0.1809E+02
  17.150  0.3321E+00  0.1809E+02
  17.160  0.3321E+00  0.1810E+02
  17.170  0.3321E+00  0.1810E+02
  17.180  0.3321E+00  0.1810E+02
  17.190  0.3321E+00  0.1811E+02
  17.200  0.3304E+00  0.1811E+02
  17.210  0.3304E+00  0.1811E+02
  17.220  0.3304E+00  0.1812E+02
  17.230  0.3304E+00  0.1812E+02
  17.240  0.3304E+00  0.1812E+02
  17.250  0.3304E+00  0.1813E+02
  17.260  0.3304E+00  0.1813E+02
  17.270  0.3304E+00  0.1813E+02
  17.280  0.3304E+00  0.1814E+02
  17.290  0.3304E+00  0.1814E+02
  17.300  0.3304E+00  0.1814E+02
  17.310  0.3304E+00  0.1815E+02
  17.320  0.3304E+00  0.1815E+02
  17.330  0.3304E+00  0.1815E+02
  17.340  0.3304E+00  0.1816E+02
  17.350  0.3304E+00  0.1816E+02
  17.360  0.3304E+00  0.1816E+02
  17.370  0.3304E+00  0.1817E+02
  17.380  0.3304E+00  0.1817E+02
  17.390  0.3304E+00  0.1817E+02
  17.400  0.3304E+00  0.1818E+02
  17.410  0.3304E+00  0.1818E+02
  17.420  0.3304E+00  0.1818E+02
  17.430  0.3304E+00  0.1819E+02
  17.440  0.3304E+00  0.1819E+02
  17.450  0.3304E+00  0.1819E+02
  17.460  0.3304E+00  0.1820E+02
  17.470  0.3304E+00  0.1820E+02
  17.480  0.3304E+00  0.1820E+02
  17.490  0.3304E+00  0.1821E+02
  17.500  0.3304E+00  0.1821E+02
  17.510  0.3380E+00  0.1821E+02
  17.520  0.3605E+00  0.1822E+02
  17.530  0.3605E+00  0.1822E+02
  17.540  0.3605E+00  0.1822E+02
  17.550  0.3605E+00  0.1823E+02
  17.560  0.3605E+00  0.1823E+02
  17.570  0.3605E+00  0.1823E+02
  17.580  0.3605E+00  0.1824E+02
  17.590  0.3605E+00  0.1824E+02
  17.600  0.3605E+00  0.1824E+02
  17.610  0.3605E+00  0.1825E+02
  17.620  0.3605E+00  0.1825E+02
  17.630  0.3605E+00  0.1826E+02
  17.640  0.3605E+00  0.1826E+02
  17.650  0.3591E+00  0.1826E+02
  17.660  0.3591E+00  0.1827E+02
  17.670  0.3591E+00  0.1827E+02
  17.680  0.3591E+00  0.1827E+02
  17.690  0.3591E+00  0.1828E+02
  17.700  0.3591E+00  0.1828E+02
  17.710  0.3591E+00  0.1828E+02
  17.720  0.3591E+00  0.1829E+02
  17.730  0.3591E+00  0.1829E+02
  17.740  0.3591E+00  0.1829E+02
  17.750  0.3591E+00  0.1830E+02
  17.760  0.3591E+00  0.1830E+02
  17.770  0.3591E+00  0.1831E+02
  17.780  0.3591E+00  0.1831E+02
  17.790  0.3591E+00  0.1831E+02
  17.800  0.3591E+00  0.1832E+02
  17.810  0.3591E+00  0.1832E+02
  17.820  0.3591E+00  0.1832E+02
  17.830  0.3591E+00  0.1833E+02
  17.840  0.3591E+00  0.1833E+02
  17.850  0.3591E+00  0.1833E+02
  17.860  0.3591E+00  0.1834E+02
  17.870  0.3591E+00  0.1834E+02
  17.880  0.3591E+00  0.1835E+02
  17.890  0.3577E+00  0.1835E+02
  17.900  0.3577E+00  0.1835E+02
  17.910  0.3577E+00  0.1836E+02
  17.920  0.3577E+00  0.1836E+02
  17.930  0.3577E+00  0.1836E+02
  17.940  0.3577E+00  0.1837E+02
  17.950  0.3577E+00  0.1837E+02
  17.960  0.3577E+00  0.1837E+02
  17.970  0.3577E+00  0.1838E+02
  17.980  0.3577E+00  0.1838E+02
  17.990  0.3577E+00  0.1838E+02
  18.000  0.3577E+00  0.1839E+02
  18.010  0.3577E+00  0.1839E+02
  18.020  0.3577E+00  0.1840E+02
  18.030  0.3577E+00  0.1840E+02
  18.040  0.3577E+00  0.1840E+02
  18.050  0.3577E+00  0.1841E+02
  18.060  0.3577E+00  0.1841E+02
  18.070  0.3577E+00  0.1841E+02
  18.080  0.3577E+00  0.1842E+02
  18.090  0.3577E+00  0.1842E+02
  18.100  0.3577E+00  0.1842E+02
  18.110  0.3632E+00  0.1843E+02
  18.120  0.3632E+00  0.1843E+02
  18.130  0.3632E+00  0.1843E+02
  18.140  0.3632E+00  0.1844E+02
  18.150  0.3632E+00  0.1844E+02
  18.160  0.3632E+00  0.1845E+02
  18.170  0.3632E+00  0.1845E+02
  18.180  0.3632E+00  0.1845E+02
  18.190  0.3632E+00  0.1846E+02
  18.200  0.3632E+00  0.1846E+02
  18.210  0.3632E+00  0.1846E+02
  18.220  0.3632E+00  0.1847E+02
  18.230  0.3632E+00  0.1847E+02
  18.240  0.5290E+00  0.1848E+02
  18.250  0.5290E+00  0.1848E+02
  18.260  0.5290E+00  0.1849E+02
  18.270  0.5290E+00  0.1849E+02
  18.280  0.5290E+00  0.1850E+02
  18.290  0.5354E+00  0.1850E+02
  18.300  0.5418E+00  0.1851E+02
  18.310  0.5418E+00  0.1851E+02
  18.320  0.5418E+00  0.1852E+02
  18.330  0.5418E+00  0.1852E+02
  18.340  0.5418E+00  0.1853E+02
  18.350  0.5418E+00  0.1853E+02
  18.360  0.5418E+00  0.1854E+02
  18.370  0.5418E+00  0.1855E+02
  18.380  0.5418E+00  0.1855E+02
  18.390  0.2734E+01  0.1856E+02
  18.400  0.2734E+01  0.1859E+02
  18.410  0.2734E+01  0.1862E+02
  18.420  0.2734E+01  0.1864E+02
  18.430  0.2734E+01  0.1867E+02
  18.440  0.1509E+01  0.1869E+02
  18.450  0.1509E+01  0.1870E+02
  18.460  0.1509E+01  0.1872E+02
  18.470  0.1509E+01  0.1873E+02
  18.480  0.1509E+01  0.1875E+02
  18.490  0.1509E+01  0.1876E+02
  18.500  0.1509E+01  0.1878E+02
  18.510  0.1509E+01  0.1879E+02
  18.520  0.1509E+01  0.1881E+02
  18.530  0.1509E+01  0.1882E+02
  18.540  0.4162E+01  0.1885E+02
  18.550  0.4162E+01  0.1889E+02
  18.560  0.4161E+01  0.1894E+02
  18.570  0.2379E+00  0.1895E+02
  18.580  0.2379E+00  0.1895E+02
  18.590  0.2379E+00  0.1895E+02
  18.600  0.2379E+00  0.1895E+02
  18.610  0.2379E+00  0.1896E+02
  18.620  0.2379E+00  0.1896E+02
  18.630  0.2379E+00  0.1896E+02
  18.640  0.2379E+00  0.1896E+02
  18.650  0.2379E+00  0.1897E+02
  18.660  0.2379E+00  0.1897E+02
  18.670  0.2379E+00  0.1897E+02
  18.680  0.2379E+00  0.1897E+02
  18.690  0.2379E+00  0.1898E+02
  18.700  0.2379E+00  0.1898E+02
  18.710  0.2379E+00  0.1898E+02
  18.720  0.2379E+00  0.1898E+02
  18.730  0.2379E+00  0.1899E+02
  18.740  0.2379E+00  0.1899E+02
  18.750  0.2379E+00  0.1899E+02
  18.760  0.2379E+00  0.1899E+02
  18.770  0.2379E+00  0.1899E+02
  18.780  0.2379E+00  0.1900E+02
  18.790  0.2379E+00  0.1900E+02
  18.800  0.2379E+00  0.1900E+02
  18.810  0.2379E+00  0.1900E+02
  18.820  0.2379E+00  0.1901E+02
  18.830  0.2379E+00  0.1901E+02
  18.840  0.2379E+00  0.1901E+02
  18.850  0.2379E+00  0.1901E+02
  18.860  0.2379E+00  0.1902E+02
  18.870  0.2379E+00  0.1902E+02
  18.880  0.2379E+00  0.1902E+02
  18.890  0.2366E+00  0.1902E+02
  18.900  0.2366E+00  0.1903E+02
  18.910  0.2366E+00  0.1903E+02
  18.920  0.2366E+00  0.1903E+02
  18.930  0.2366E+00  0.1903E+02
  18.940  0.2811E+00  0.1904E+02
  18.950  0.3091E+00  0.1904E+02
  18.960  0.3091E+00  0.1904E+02
  18.970  0.3091E+00  0.1904E+02
  18.980  0.3091E+00  0.1905E+02
  18.990  0.3091E+00  0.1905E+02
  19.000  0.3091E+00  0.1905E+02
  19.010  0.3091E+00  0.1906E+02
  19.020  0.3091E+00  0.1906E+02
  19.030  0.3091E+00  0.1906E+02
  19.040  0.3091E+00  0.1907E+02
  19.050  0.3091E+00  0.1907E+02
  19.060  0.3091E+00  0.1907E+02
  19.070  0.3091E+00  0.1908E+02
  19.080  0.3091E+00  0.1908E+02
  19.090  0.3091E+00  0.1908E+02
  19.100  0.3091E+00  0.1908E+02
  19.110  0.3091E+00  0.1909E+02
  19.120  0.3091E+00  0.1909E+02
  19.130  0.3091E+00  0.1909E+02
  19.140  0.3091E+00  0.1910E+02
  19.150  0.3091E+00  0.1910E+02
  19.160  0.3091E+00  0.1910E+02
  19.170  0.3091E+00  0.1911E+02
  19.180  0.3091E+00  0.1911E+02
  19.190  0.3091E+00  0.1911E+02
  19.200  0.3091E+00  0.1912E+02
  19.210  0.3091E+00  0.1912E+02
  19.220  0.3091E+00  0.1912E+02
  19.230  0.3091E+00  0.1912E+02
  19.240  0.3091E+00  0.1913E+02
  19.250  0.3091E+00  0.1913E+02
  19.260  0.3091E+00  0.1913E+02
  19.270  0.3091E+00  0.1914E+02
  19.280  0.3091E+00  0.1914E+02
  19.290  0.3091E+00  0.1914E+02
  19.300  0.3091E+00  0.1915E+02
  19.310  0.3091E+00  0.1915E+02
  19.320  0.3091E+00  0.1915E+02
  19.330  0.3091E+00  0.1916E+02
  19.340  0.3091E+00  0.1916E+02
  19.350  0.3091E+00  0.1916E+02
  19.360  0.3091E+00  0.1917E+02
  19.370  0.3091E+00  0.1917E+02
  19.380  0.3091E+00  0.1917E+02
  19.390  0.3091E+00  0.1917E+02
  19.400  0.3091E+00  0.1918E+02
  19.410  0.3091E+00  0.1918E+02
  19.420  0.3970E+00  0.1918E+02
  19.430  0.3970E+00  0.1919E+02
  19.440  0.3970E+00  0.1919E+02
  19.450  0.3970E+00  0.1920E+02
  19.460  0.3970E+00  0.1920E+02
  19.470  0.3970E+00  0.1920E+02
  19.480  0.3970E+00  0.1921E+02
  19.490  0.3969E+00  0.1921E+02
  19.500  0.3969E+00  0.1922E+02
  19.510  0.3969E+00  0.1922E+02
  19.520  0.3969E+00  0.1922E+02
  19.530  0.3969E+00  0.1923E+02
  19.540  0.3969E+00  0.1923E+02
  19.550  0.3969E+00  0.1924E+02
  19.560  0.3969E+00  0.1924E+02
  19.570  0.3969E+00  0.1924E+02
  19.580  0.3969E+00  0.1925E+02
  19.590  0.3969E+00  0.1925E+02
  19.600  0.3969E+00  0.1926E+02
  19.610  0.3969E+00  0.1926E+02
  19.620  0.3969E+00  0.1926E+02
  19.630  0.3969E+00  0.1927E+02
  19.640  0.3969E+00  0.1927E+02
  19.650  0.3969E+00  0.1928E+02
  19.660  0.3969E+00  0.1928E+02
  19.670  0.3969E+00  0.1928E+02
  19.680  0.3969E+00  0.1929E+02
  19.690  0.3969E+00  0.1929E+02
  19.700  0.3969E+00  0.1930E+02
  19.710  0.3969E+00  0.1930E+02
  19.720  0.3969E+00  0.1930E+02
  19.730  0.3969E+00  0.1931E+02
  19.740  0.3969E+00  0.1931E+02
  19.750  0.3424E+00  0.1931E+02
  19.760  0.2877E+00  0.1932E+02
  19.770  0.2877E+00  0.1932E+02
  19.780  0.2877E+00  0.1932E+02
  19.790  0.2877E+00  0.1933E+02
  19.800  0.2877E+00  0.1933E+02
  19.810  0.2877E+00  0.1933E+02
  19.820  0.2877E+00  0.1934E+02
  19.830  0.2877E+00  0.1934E+02
  19.840  0.2877E+00  0.1934E+02
  19.850  0.2877E+00  0.1934E+02
  19.860  0.2877E+00  0.1935E+02
  19.870  0.2877E+00  0.1935E+02
  19.880  0.2877E+00  0.1935E+02
  19.890  0.2877E+00  0.1936E+02
  19.900  0.2877E+00  0.1936E+02
  19.910  0.2877E+00  0.1936E+02
  19.920  0.2865E+00  0.1936E+02
  19.930  0.2865E+00  0.1937E+02
  19.940  0.2865E+00  0.1937E+02
  19.950  0.2865E+00  0.1937E+02
  19.960  0.2865E+00  0.1938E+02
  19.970  0.2865E+00  0.1938E+02
  19.980  0.2865E+00  0.1938E+02
  19.990  0.2865E+00  0.1938E+02
  20.000  0.2865E+00  0.1939E+02
