# E (eV)   ldos(E)   pdos(E)   
 -20.691  0.000E+00  0.000E+00
 -20.681  0.305E+01  0.305E+01
 -20.671  0.203E+01  0.203E+01
 -20.661  0.152E+01  0.152E+01
 -20.651  0.121E+01  0.121E+01
 -20.641  0.120E+01  0.120E+01
 -20.631  0.999E+00  0.999E+00
 -20.621  0.995E+00  0.995E+00
 -20.611  0.990E+00  0.990E+00
 -20.601  0.845E+00  0.845E+00
 -20.591  0.842E+00  0.842E+00
 -20.581  0.838E+00  0.838E+00
 -20.571  0.731E+00  0.731E+00
 -20.561  0.728E+00  0.728E+00
 -20.551  0.724E+00  0.724E+00
 -20.541  0.642E+00  0.642E+00
 -20.531  0.639E+00  0.639E+00
 -20.521  0.637E+00  0.637E+00
 -20.511  0.571E+00  0.571E+00
 -20.501  0.569E+00  0.569E+00
 -20.491  0.567E+00  0.567E+00
 -20.481  0.564E+00  0.564E+00
 -20.471  0.512E+00  0.512E+00
 -20.461  0.510E+00  0.510E+00
 -20.451  0.508E+00  0.508E+00
 -20.441  0.506E+00  0.506E+00
 -20.431  0.462E+00  0.462E+00
 -20.421  0.461E+00  0.461E+00
 -20.411  0.459E+00  0.459E+00
 -20.401  0.457E+00  0.457E+00
 -20.391  0.455E+00  0.455E+00
 -20.381  0.419E+00  0.419E+00
 -20.371  0.418E+00  0.418E+00
 -20.361  0.416E+00  0.416E+00
 -20.351  0.415E+00  0.415E+00
 -20.341  0.413E+00  0.413E+00
 -20.331  0.383E+00  0.383E+00
 -20.321  0.381E+00  0.381E+00
 -20.311  0.380E+00  0.380E+00
 -20.301  0.379E+00  0.379E+00
 -20.291  0.377E+00  0.377E+00
 -20.281  0.376E+00  0.376E+00
 -20.271  0.350E+00  0.350E+00
 -20.261  0.349E+00  0.349E+00
 -20.251  0.348E+00  0.348E+00
 -20.241  0.346E+00  0.346E+00
 -20.231  0.345E+00  0.345E+00
 -20.221  0.323E+00  0.323E+00
 -20.211  0.322E+00  0.322E+00
 -20.201  0.321E+00  0.321E+00
 -20.191  0.320E+00  0.320E+00
 -20.181  0.319E+00  0.319E+00
 -20.171  0.317E+00  0.317E+00
 -20.161  0.299E+00  0.299E+00
 -20.151  0.298E+00  0.298E+00
 -20.141  0.296E+00  0.296E+00
 -20.131  0.295E+00  0.295E+00
 -20.121  0.294E+00  0.294E+00
 -20.111  0.293E+00  0.293E+00
 -20.101  0.292E+00  0.292E+00
 -20.091  0.276E+00  0.276E+00
 -20.081  0.275E+00  0.275E+00
 -20.071  0.274E+00  0.274E+00
 -20.061  0.273E+00  0.273E+00
 -20.051  0.272E+00  0.272E+00
 -20.041  0.271E+00  0.271E+00
 -20.031  0.270E+00  0.270E+00
 -20.021  0.256E+00  0.256E+00
 -20.011  0.255E+00  0.255E+00
 -20.001  0.254E+00  0.254E+00
 -19.991  0.253E+00  0.253E+00
 -19.981  0.253E+00  0.253E+00
 -19.971  0.252E+00  0.252E+00
 -19.961  0.251E+00  0.251E+00
 -19.951  0.238E+00  0.238E+00
 -19.941  0.238E+00  0.238E+00
 -19.931  0.237E+00  0.237E+00
 -19.921  0.236E+00  0.236E+00
 -19.911  0.235E+00  0.235E+00
 -19.901  0.234E+00  0.234E+00
 -19.891  0.234E+00  0.234E+00
 -19.881  0.233E+00  0.233E+00
 -19.871  0.222E+00  0.222E+00
 -19.861  0.221E+00  0.221E+00
 -19.851  0.221E+00  0.221E+00
 -19.841  0.220E+00  0.220E+00
 -19.831  0.219E+00  0.219E+00
 -19.821  0.218E+00  0.218E+00
 -19.811  0.218E+00  0.218E+00
 -19.801  0.217E+00  0.217E+00
 -19.791  0.207E+00  0.207E+00
 -19.781  0.207E+00  0.207E+00
 -19.771  0.206E+00  0.206E+00
 -19.761  0.205E+00  0.205E+00
 -19.751  0.205E+00  0.205E+00
 -19.741  0.204E+00  0.204E+00
 -19.731  0.203E+00  0.203E+00
 -19.721  0.203E+00  0.203E+00
 -19.711  0.194E+00  0.194E+00
 -19.701  0.194E+00  0.194E+00
 -19.691  0.193E+00  0.193E+00
 -19.681  0.192E+00  0.192E+00
 -19.671  0.192E+00  0.192E+00
 -19.661  0.191E+00  0.191E+00
 -19.651  0.191E+00  0.191E+00
 -19.641  0.190E+00  0.190E+00
 -19.631  0.189E+00  0.189E+00
 -19.621  0.182E+00  0.182E+00
 -19.611  0.181E+00  0.181E+00
 -19.601  0.181E+00  0.181E+00
 -19.591  0.180E+00  0.180E+00
 -19.581  0.180E+00  0.180E+00
 -19.571  0.179E+00  0.179E+00
 -19.561  0.178E+00  0.178E+00
 -19.551  0.178E+00  0.178E+00
 -19.541  0.171E+00  0.171E+00
 -19.531  0.171E+00  0.171E+00
 -19.521  0.170E+00  0.170E+00
 -19.511  0.170E+00  0.170E+00
 -19.501  0.169E+00  0.169E+00
 -19.491  0.169E+00  0.169E+00
 -19.481  0.168E+00  0.168E+00
 -19.471  0.167E+00  0.167E+00
 -19.461  0.167E+00  0.167E+00
 -19.451  0.166E+00  0.166E+00
 -19.441  0.160E+00  0.160E+00
 -19.431  0.160E+00  0.160E+00
 -19.421  0.159E+00  0.159E+00
 -19.411  0.159E+00  0.159E+00
 -19.401  0.159E+00  0.159E+00
 -19.391  0.158E+00  0.158E+00
 -19.381  0.158E+00  0.158E+00
 -19.371  0.157E+00  0.157E+00
 -19.361  0.157E+00  0.157E+00
 -19.351  0.151E+00  0.151E+00
 -19.341  0.151E+00  0.151E+00
 -19.331  0.150E+00  0.150E+00
 -19.321  0.150E+00  0.150E+00
 -19.311  0.149E+00  0.149E+00
 -19.301  0.149E+00  0.149E+00
 -19.291  0.149E+00  0.149E+00
 -19.281  0.148E+00  0.148E+00
 -19.271  0.148E+00  0.148E+00
 -19.261  0.147E+00  0.147E+00
 -19.251  0.142E+00  0.142E+00
 -19.241  0.142E+00  0.142E+00
 -19.231  0.142E+00  0.142E+00
 -19.221  0.141E+00  0.141E+00
 -19.211  0.141E+00  0.141E+00
 -19.201  0.140E+00  0.140E+00
 -19.191  0.140E+00  0.140E+00
 -19.181  0.140E+00  0.140E+00
 -19.171  0.139E+00  0.139E+00
 -19.161  0.139E+00  0.139E+00
 -19.151  0.134E+00  0.134E+00
 -19.141  0.134E+00  0.134E+00
 -19.131  0.134E+00  0.134E+00
 -19.121  0.133E+00  0.133E+00
 -19.111  0.133E+00  0.133E+00
 -19.101  0.132E+00  0.132E+00
 -19.091  0.132E+00  0.132E+00
 -19.081  0.132E+00  0.132E+00
 -19.071  0.131E+00  0.131E+00
 -19.061  0.131E+00  0.131E+00
 -19.051  0.131E+00  0.131E+00
 -19.041  0.127E+00  0.127E+00
 -19.031  0.126E+00  0.126E+00
 -19.021  0.126E+00  0.126E+00
 -19.011  0.126E+00  0.126E+00
 -19.001  0.125E+00  0.125E+00
 -18.991  0.125E+00  0.125E+00
 -18.981  0.124E+00  0.124E+00
 -18.971  0.124E+00  0.124E+00
 -18.961  0.124E+00  0.124E+00
 -18.951  0.123E+00  0.123E+00
 -18.941  0.123E+00  0.123E+00
 -18.931  0.120E+00  0.120E+00
 -18.921  0.119E+00  0.119E+00
 -18.911  0.119E+00  0.119E+00
 -18.901  0.119E+00  0.119E+00
 -18.891  0.118E+00  0.118E+00
 -18.881  0.118E+00  0.118E+00
 -18.871  0.118E+00  0.118E+00
 -18.861  0.117E+00  0.117E+00
 -18.851  0.117E+00  0.117E+00
 -18.841  0.117E+00  0.117E+00
 -18.831  0.116E+00  0.116E+00
 -18.821  0.113E+00  0.113E+00
 -18.811  0.113E+00  0.113E+00
 -18.801  0.112E+00  0.112E+00
 -18.791  0.112E+00  0.112E+00
 -18.781  0.112E+00  0.112E+00
 -18.771  0.112E+00  0.112E+00
 -18.761  0.111E+00  0.111E+00
 -18.751  0.111E+00  0.111E+00
 -18.741  0.111E+00  0.111E+00
 -18.731  0.110E+00  0.110E+00
 -18.721  0.110E+00  0.110E+00
 -18.711  0.107E+00  0.107E+00
 -18.701  0.107E+00  0.107E+00
 -18.691  0.107E+00  0.107E+00
 -18.681  0.106E+00  0.106E+00
 -18.671  0.106E+00  0.106E+00
 -18.661  0.106E+00  0.106E+00
 -18.651  0.105E+00  0.105E+00
 -18.641  0.105E+00  0.105E+00
 -18.631  0.105E+00  0.105E+00
 -18.621  0.104E+00  0.104E+00
 -18.611  0.104E+00  0.104E+00
 -18.601  0.104E+00  0.104E+00
 -18.591  0.101E+00  0.101E+00
 -18.581  0.101E+00  0.101E+00
 -18.571  0.101E+00  0.101E+00
 -18.561  0.101E+00  0.101E+00
 -18.551  0.100E+00  0.100E+00
 -18.541  0.100E+00  0.100E+00
 -18.531  0.997E-01  0.997E-01
 -18.521  0.994E-01  0.994E-01
 -18.511  0.992E-01  0.992E-01
 -18.501  0.989E-01  0.989E-01
 -18.491  0.986E-01  0.986E-01
 -18.481  0.964E-01  0.964E-01
 -18.471  0.961E-01  0.961E-01
 -18.461  0.958E-01  0.958E-01
 -18.451  0.956E-01  0.956E-01
 -18.441  0.953E-01  0.953E-01
 -18.431  0.950E-01  0.950E-01
 -18.421  0.948E-01  0.948E-01
 -18.411  0.945E-01  0.945E-01
 -18.401  0.942E-01  0.942E-01
 -18.391  0.940E-01  0.940E-01
 -18.381  0.937E-01  0.937E-01
 -18.371  0.934E-01  0.934E-01
 -18.361  0.914E-01  0.914E-01
 -18.351  0.912E-01  0.912E-01
 -18.341  0.909E-01  0.909E-01
 -18.331  0.907E-01  0.907E-01
 -18.321  0.904E-01  0.904E-01
 -18.311  0.902E-01  0.902E-01
 -18.301  0.899E-01  0.899E-01
 -18.291  0.897E-01  0.897E-01
 -18.281  0.894E-01  0.894E-01
 -18.271  0.892E-01  0.892E-01
 -18.261  0.889E-01  0.889E-01
 -18.251  0.887E-01  0.887E-01
 -18.241  0.884E-01  0.884E-01
 -18.231  0.866E-01  0.866E-01
 -18.221  0.864E-01  0.864E-01
 -18.211  0.862E-01  0.862E-01
 -18.201  0.859E-01  0.859E-01
 -18.191  0.857E-01  0.857E-01
 -18.181  0.854E-01  0.854E-01
 -18.171  0.852E-01  0.852E-01
 -18.161  0.850E-01  0.850E-01
 -18.151  0.847E-01  0.847E-01
 -18.141  0.845E-01  0.845E-01
 -18.131  0.842E-01  0.842E-01
 -18.121  0.840E-01  0.840E-01
 -18.111  0.824E-01  0.824E-01
 -18.101  0.822E-01  0.822E-01
 -18.091  0.819E-01  0.819E-01
 -18.081  0.817E-01  0.817E-01
 -18.071  0.815E-01  0.815E-01
 -18.061  0.812E-01  0.812E-01
 -18.051  0.810E-01  0.810E-01
 -18.041  0.808E-01  0.808E-01
 -18.031  0.806E-01  0.806E-01
 -18.021  0.803E-01  0.803E-01
 -18.011  0.801E-01  0.801E-01
 -18.001  0.799E-01  0.799E-01
 -17.991  0.796E-01  0.796E-01
 -17.981  0.782E-01  0.782E-01
 -17.971  0.780E-01  0.780E-01
 -17.961  0.778E-01  0.778E-01
 -17.951  0.776E-01  0.776E-01
 -17.941  0.773E-01  0.773E-01
 -17.931  0.771E-01  0.771E-01
 -17.921  0.769E-01  0.769E-01
 -17.911  0.767E-01  0.767E-01
 -17.901  0.764E-01  0.764E-01
 -17.891  0.762E-01  0.762E-01
 -17.881  0.760E-01  0.760E-01
 -17.871  0.758E-01  0.758E-01
 -17.861  0.755E-01  0.755E-01
 -17.851  0.716E-01  0.716E-01
 -17.841  0.659E-01  0.659E-01
 -17.831  0.601E-01  0.601E-01
 -17.821  0.544E-01  0.544E-01
 -17.811  0.487E-01  0.487E-01
 -17.801  0.430E-01  0.430E-01
 -17.791  0.373E-01  0.373E-01
 -17.781  0.315E-01  0.315E-01
 -17.771  0.258E-01  0.258E-01
 -17.761  0.201E-01  0.201E-01
 -17.751  0.144E-01  0.144E-01
 -17.741  0.865E-02  0.865E-02
 -17.731  0.293E-02  0.293E-02
 -17.721  0.141E+00  0.141E+00
 -17.711  0.135E+00  0.135E+00
 -17.701  0.129E+00  0.129E+00
 -17.691  0.124E+00  0.124E+00
 -17.681  0.118E+00  0.118E+00
 -17.671  0.113E+00  0.113E+00
 -17.661  0.107E+00  0.107E+00
 -17.651  0.101E+00  0.101E+00
 -17.641  0.959E-01  0.959E-01
 -17.631  0.903E-01  0.903E-01
 -17.621  0.848E-01  0.848E-01
 -17.611  0.792E-01  0.792E-01
 -17.601  0.736E-01  0.736E-01
 -17.591  0.679E-01  0.679E-01
 -17.581  0.677E-01  0.677E-01
 -17.571  0.675E-01  0.675E-01
 -17.561  0.673E-01  0.673E-01
 -17.551  0.671E-01  0.671E-01
 -17.541  0.669E-01  0.669E-01
 -17.531  0.667E-01  0.667E-01
 -17.521  0.665E-01  0.665E-01
 -17.511  0.663E-01  0.663E-01
 -17.501  0.661E-01  0.661E-01
 -17.491  0.659E-01  0.659E-01
 -17.481  0.658E-01  0.658E-01
 -17.471  0.656E-01  0.656E-01
 -17.461  0.654E-01  0.654E-01
 -17.451  0.645E-01  0.645E-01
 -17.441  0.643E-01  0.643E-01
 -17.431  0.641E-01  0.641E-01
 -17.421  0.640E-01  0.640E-01
 -17.411  0.638E-01  0.638E-01
 -17.401  0.636E-01  0.636E-01
 -17.391  0.634E-01  0.634E-01
 -17.381  0.632E-01  0.632E-01
 -17.371  0.630E-01  0.630E-01
 -17.361  0.628E-01  0.628E-01
 -17.351  0.627E-01  0.627E-01
 -17.341  0.625E-01  0.625E-01
 -17.331  0.623E-01  0.623E-01
 -17.321  0.616E-01  0.616E-01
 -17.311  0.614E-01  0.614E-01
 -17.301  0.612E-01  0.612E-01
 -17.291  0.610E-01  0.610E-01
 -17.281  0.608E-01  0.608E-01
 -17.271  0.607E-01  0.607E-01
 -17.261  0.605E-01  0.605E-01
 -17.251  0.603E-01  0.603E-01
 -17.241  0.601E-01  0.601E-01
 -17.231  0.600E-01  0.600E-01
 -17.221  0.598E-01  0.598E-01
 -17.211  0.596E-01  0.596E-01
 -17.201  0.594E-01  0.594E-01
 -17.191  0.593E-01  0.593E-01
 -17.181  0.586E-01  0.586E-01
 -17.171  0.585E-01  0.585E-01
 -17.161  0.583E-01  0.583E-01
 -17.151  0.581E-01  0.581E-01
 -17.141  0.580E-01  0.580E-01
 -17.131  0.578E-01  0.578E-01
 -17.121  0.576E-01  0.576E-01
 -17.111  0.574E-01  0.574E-01
 -17.101  0.573E-01  0.573E-01
 -17.091  0.571E-01  0.571E-01
 -17.081  0.569E-01  0.569E-01
 -17.071  0.568E-01  0.568E-01
 -17.061  0.566E-01  0.566E-01
 -17.051  0.564E-01  0.564E-01
 -17.041  0.559E-01  0.559E-01
 -17.031  0.557E-01  0.557E-01
 -17.021  0.556E-01  0.556E-01
 -17.011  0.554E-01  0.554E-01
 -17.001  0.552E-01  0.552E-01
 -16.991  0.551E-01  0.551E-01
 -16.981  0.549E-01  0.549E-01
 -16.971  0.547E-01  0.547E-01
 -16.961  0.546E-01  0.546E-01
 -16.951  0.544E-01  0.544E-01
 -16.941  0.542E-01  0.542E-01
 -16.931  0.541E-01  0.541E-01
 -16.921  0.539E-01  0.539E-01
 -16.911  0.537E-01  0.537E-01
 -16.901  0.533E-01  0.533E-01
 -16.891  0.532E-01  0.532E-01
 -16.881  0.530E-01  0.530E-01
 -16.871  0.528E-01  0.528E-01
 -16.861  0.527E-01  0.527E-01
 -16.851  0.525E-01  0.525E-01
 -16.841  0.523E-01  0.523E-01
 -16.831  0.522E-01  0.522E-01
 -16.821  0.520E-01  0.520E-01
 -16.811  0.519E-01  0.519E-01
 -16.801  0.517E-01  0.517E-01
 -16.791  0.515E-01  0.515E-01
 -16.781  0.514E-01  0.514E-01
 -16.771  0.512E-01  0.512E-01
 -16.761  0.509E-01  0.509E-01
 -16.751  0.507E-01  0.507E-01
 -16.741  0.506E-01  0.506E-01
 -16.731  0.504E-01  0.504E-01
 -16.721  0.502E-01  0.502E-01
 -16.711  0.501E-01  0.501E-01
 -16.701  0.499E-01  0.499E-01
 -16.691  0.498E-01  0.498E-01
 -16.681  0.496E-01  0.496E-01
 -16.671  0.495E-01  0.495E-01
 -16.661  0.493E-01  0.493E-01
 -16.651  0.491E-01  0.491E-01
 -16.641  0.490E-01  0.490E-01
 -16.631  0.488E-01  0.488E-01
 -16.621  0.486E-01  0.486E-01
 -16.611  0.484E-01  0.484E-01
 -16.601  0.482E-01  0.482E-01
 -16.591  0.481E-01  0.481E-01
 -16.581  0.479E-01  0.479E-01
 -16.571  0.478E-01  0.478E-01
 -16.561  0.476E-01  0.476E-01
 -16.551  0.475E-01  0.475E-01
 -16.541  0.473E-01  0.473E-01
 -16.531  0.472E-01  0.472E-01
 -16.521  0.470E-01  0.470E-01
 -16.511  0.469E-01  0.469E-01
 -16.501  0.467E-01  0.467E-01
 -16.491  0.465E-01  0.465E-01
 -16.481  0.464E-01  0.464E-01
 -16.471  0.462E-01  0.462E-01
 -16.461  0.460E-01  0.460E-01
 -16.451  0.459E-01  0.459E-01
 -16.441  0.457E-01  0.457E-01
 -16.431  0.456E-01  0.456E-01
 -16.421  0.454E-01  0.454E-01
 -16.411  0.453E-01  0.453E-01
 -16.401  0.451E-01  0.451E-01
 -16.391  0.450E-01  0.450E-01
 -16.381  0.448E-01  0.448E-01
 -16.371  0.447E-01  0.447E-01
 -16.361  0.445E-01  0.445E-01
 -16.351  0.444E-01  0.444E-01
 -16.341  0.443E-01  0.443E-01
 -16.331  0.441E-01  0.441E-01
 -16.321  0.439E-01  0.439E-01
 -16.311  0.438E-01  0.438E-01
 -16.301  0.436E-01  0.436E-01
 -16.291  0.435E-01  0.435E-01
 -16.281  0.433E-01  0.433E-01
 -16.271  0.432E-01  0.432E-01
 -16.261  0.430E-01  0.430E-01
 -16.251  0.429E-01  0.429E-01
 -16.241  0.427E-01  0.427E-01
 -16.231  0.426E-01  0.426E-01
 -16.221  0.424E-01  0.424E-01
 -16.211  0.423E-01  0.423E-01
 -16.201  0.422E-01  0.422E-01
 -16.191  0.421E-01  0.421E-01
 -16.181  0.419E-01  0.419E-01
 -16.171  0.418E-01  0.418E-01
 -16.161  0.416E-01  0.416E-01
 -16.151  0.415E-01  0.415E-01
 -16.141  0.413E-01  0.413E-01
 -16.131  0.412E-01  0.412E-01
 -16.121  0.410E-01  0.410E-01
 -16.111  0.409E-01  0.409E-01
 -16.101  0.407E-01  0.407E-01
 -16.091  0.406E-01  0.406E-01
 -16.081  0.404E-01  0.404E-01
 -16.071  0.403E-01  0.403E-01
 -16.061  0.403E-01  0.403E-01
 -16.051  0.401E-01  0.401E-01
 -16.041  0.400E-01  0.400E-01
 -16.031  0.398E-01  0.398E-01
 -16.021  0.397E-01  0.397E-01
 -16.011  0.395E-01  0.395E-01
 -16.001  0.394E-01  0.394E-01
 -15.991  0.392E-01  0.392E-01
 -15.981  0.391E-01  0.391E-01
 -15.971  0.389E-01  0.389E-01
 -15.961  0.388E-01  0.388E-01
 -15.951  0.386E-01  0.386E-01
 -15.941  0.385E-01  0.385E-01
 -15.931  0.383E-01  0.383E-01
 -15.921  0.384E-01  0.384E-01
 -15.911  0.383E-01  0.383E-01
 -15.901  0.381E-01  0.381E-01
 -15.891  0.380E-01  0.380E-01
 -15.881  0.378E-01  0.378E-01
 -15.871  0.377E-01  0.377E-01
 -15.861  0.375E-01  0.375E-01
 -15.851  0.374E-01  0.374E-01
 -15.841  0.372E-01  0.372E-01
 -15.831  0.371E-01  0.371E-01
 -15.821  0.369E-01  0.369E-01
 -15.811  0.368E-01  0.368E-01
 -15.801  0.366E-01  0.366E-01
 -15.791  0.368E-01  0.368E-01
 -15.781  0.366E-01  0.366E-01
 -15.771  0.365E-01  0.365E-01
 -15.761  0.363E-01  0.363E-01
 -15.751  0.362E-01  0.362E-01
 -15.741  0.360E-01  0.360E-01
 -15.731  0.358E-01  0.358E-01
 -15.721  0.357E-01  0.357E-01
 -15.711  0.355E-01  0.355E-01
 -15.701  0.354E-01  0.354E-01
 -15.691  0.352E-01  0.352E-01
 -15.681  0.351E-01  0.351E-01
 -15.671  0.349E-01  0.349E-01
 -15.661  0.348E-01  0.348E-01
 -15.651  0.350E-01  0.350E-01
 -15.641  0.348E-01  0.348E-01
 -15.631  0.347E-01  0.347E-01
 -15.621  0.345E-01  0.345E-01
 -15.611  0.344E-01  0.344E-01
 -15.601  0.342E-01  0.342E-01
 -15.591  0.341E-01  0.341E-01
 -15.581  0.339E-01  0.339E-01
 -15.571  0.338E-01  0.338E-01
 -15.561  0.336E-01  0.336E-01
 -15.551  0.335E-01  0.335E-01
 -15.541  0.333E-01  0.333E-01
 -15.531  0.332E-01  0.332E-01
 -15.521  0.330E-01  0.330E-01
 -15.511  0.333E-01  0.333E-01
 -15.501  0.331E-01  0.331E-01
 -15.491  0.329E-01  0.329E-01
 -15.481  0.328E-01  0.328E-01
 -15.471  0.326E-01  0.326E-01
 -15.461  0.325E-01  0.325E-01
 -15.451  0.323E-01  0.323E-01
 -15.441  0.322E-01  0.322E-01
 -15.431  0.320E-01  0.320E-01
 -15.421  0.319E-01  0.319E-01
 -15.411  0.317E-01  0.317E-01
 -15.401  0.316E-01  0.316E-01
 -15.391  0.314E-01  0.314E-01
 -15.381  0.317E-01  0.317E-01
 -15.371  0.315E-01  0.315E-01
 -15.361  0.314E-01  0.314E-01
 -15.351  0.312E-01  0.312E-01
 -15.341  0.311E-01  0.311E-01
 -15.331  0.309E-01  0.309E-01
 -15.321  0.308E-01  0.308E-01
 -15.311  0.306E-01  0.306E-01
 -15.301  0.304E-01  0.304E-01
 -15.291  0.303E-01  0.303E-01
 -15.281  0.301E-01  0.301E-01
 -15.271  0.300E-01  0.300E-01
 -15.261  0.298E-01  0.298E-01
 -15.251  0.302E-01  0.302E-01
 -15.241  0.300E-01  0.300E-01
 -15.231  0.298E-01  0.298E-01
 -15.221  0.297E-01  0.297E-01
 -15.211  0.295E-01  0.295E-01
 -15.201  0.294E-01  0.294E-01
 -15.191  0.292E-01  0.292E-01
 -15.181  0.290E-01  0.290E-01
 -15.171  0.289E-01  0.289E-01
 -15.161  0.287E-01  0.287E-01
 -15.151  0.286E-01  0.286E-01
 -15.141  0.284E-01  0.284E-01
 -15.131  0.282E-01  0.282E-01
 -15.121  0.281E-01  0.281E-01
 -15.111  0.285E-01  0.285E-01
 -15.101  0.283E-01  0.283E-01
 -15.091  0.281E-01  0.281E-01
 -15.081  0.280E-01  0.280E-01
 -15.071  0.278E-01  0.278E-01
 -15.061  0.276E-01  0.276E-01
 -15.051  0.275E-01  0.275E-01
 -15.041  0.273E-01  0.273E-01
 -15.031  0.272E-01  0.272E-01
 -15.021  0.270E-01  0.270E-01
 -15.011  0.268E-01  0.268E-01
 -15.001  0.267E-01  0.267E-01
 -14.991  0.271E-01  0.271E-01
 -14.981  0.269E-01  0.269E-01
 -14.971  0.268E-01  0.268E-01
 -14.961  0.266E-01  0.266E-01
 -14.951  0.264E-01  0.264E-01
 -14.941  0.263E-01  0.263E-01
 -14.931  0.261E-01  0.261E-01
 -14.921  0.259E-01  0.259E-01
 -14.911  0.258E-01  0.258E-01
 -14.901  0.256E-01  0.256E-01
 -14.891  0.254E-01  0.254E-01
 -14.881  0.252E-01  0.252E-01
 -14.871  0.251E-01  0.251E-01
 -14.861  0.256E-01  0.256E-01
 -14.851  0.254E-01  0.254E-01
 -14.841  0.252E-01  0.252E-01
 -14.831  0.250E-01  0.250E-01
 -14.821  0.249E-01  0.249E-01
 -14.811  0.247E-01  0.247E-01
 -14.801  0.245E-01  0.245E-01
 -14.791  0.243E-01  0.243E-01
 -14.781  0.242E-01  0.242E-01
 -14.771  0.240E-01  0.240E-01
 -14.761  0.238E-01  0.238E-01
 -14.751  0.236E-01  0.236E-01
 -14.741  0.242E-01  0.242E-01
 -14.731  0.240E-01  0.240E-01
 -14.721  0.238E-01  0.238E-01
 -14.711  0.236E-01  0.236E-01
 -14.701  0.234E-01  0.234E-01
 -14.691  0.233E-01  0.233E-01
 -14.681  0.231E-01  0.231E-01
 -14.671  0.229E-01  0.229E-01
 -14.661  0.227E-01  0.227E-01
 -14.651  0.225E-01  0.225E-01
 -14.641  0.223E-01  0.223E-01
 -14.631  0.222E-01  0.222E-01
 -14.621  0.227E-01  0.227E-01
 -14.611  0.225E-01  0.225E-01
 -14.601  0.223E-01  0.223E-01
 -14.591  0.222E-01  0.222E-01
 -14.581  0.220E-01  0.220E-01
 -14.571  0.218E-01  0.218E-01
 -14.561  0.216E-01  0.216E-01
 -14.551  0.214E-01  0.214E-01
 -14.541  0.212E-01  0.212E-01
 -14.531  0.210E-01  0.210E-01
 -14.521  0.208E-01  0.208E-01
 -14.511  0.214E-01  0.214E-01
 -14.501  0.212E-01  0.212E-01
 -14.491  0.210E-01  0.210E-01
 -14.481  0.208E-01  0.208E-01
 -14.471  0.206E-01  0.206E-01
 -14.461  0.204E-01  0.204E-01
 -14.451  0.202E-01  0.202E-01
 -14.441  0.200E-01  0.200E-01
 -14.431  0.198E-01  0.198E-01
 -14.421  0.196E-01  0.196E-01
 -14.411  0.194E-01  0.194E-01
 -14.401  0.201E-01  0.201E-01
 -14.391  0.199E-01  0.199E-01
 -14.381  0.197E-01  0.197E-01
 -14.371  0.195E-01  0.195E-01
 -14.361  0.192E-01  0.192E-01
 -14.351  0.190E-01  0.190E-01
 -14.341  0.188E-01  0.188E-01
 -14.331  0.186E-01  0.186E-01
 -14.321  0.184E-01  0.184E-01
 -14.311  0.182E-01  0.182E-01
 -14.301  0.180E-01  0.180E-01
 -14.291  0.186E-01  0.186E-01
 -14.281  0.184E-01  0.184E-01
 -14.271  0.182E-01  0.182E-01
 -14.261  0.180E-01  0.180E-01
 -14.251  0.178E-01  0.178E-01
 -14.241  0.175E-01  0.175E-01
 -14.231  0.173E-01  0.173E-01
 -14.221  0.171E-01  0.171E-01
 -14.211  0.169E-01  0.169E-01
 -14.201  0.166E-01  0.166E-01
 -14.191  0.173E-01  0.173E-01
 -14.181  0.171E-01  0.171E-01
 -14.171  0.169E-01  0.169E-01
 -14.161  0.166E-01  0.166E-01
 -14.151  0.164E-01  0.164E-01
 -14.141  0.161E-01  0.161E-01
 -14.131  0.159E-01  0.159E-01
 -14.121  0.157E-01  0.157E-01
 -14.111  0.154E-01  0.154E-01
 -14.101  0.162E-01  0.162E-01
 -14.091  0.159E-01  0.159E-01
 -14.081  0.156E-01  0.156E-01
 -14.071  0.154E-01  0.154E-01
 -14.061  0.151E-01  0.151E-01
 -14.051  0.149E-01  0.149E-01
 -14.041  0.146E-01  0.146E-01
 -14.031  0.144E-01  0.144E-01
 -14.021  0.141E-01  0.141E-01
 -14.011  0.148E-01  0.148E-01
 -14.001  0.146E-01  0.146E-01
 -13.991  0.143E-01  0.143E-01
 -13.981  0.140E-01  0.140E-01
 -13.971  0.137E-01  0.137E-01
 -13.961  0.135E-01  0.135E-01
 -13.951  0.132E-01  0.132E-01
 -13.941  0.129E-01  0.129E-01
 -13.931  0.137E-01  0.137E-01
 -13.921  0.134E-01  0.134E-01
 -13.911  0.131E-01  0.131E-01
 -13.901  0.128E-01  0.128E-01
 -13.891  0.125E-01  0.125E-01
 -13.881  0.122E-01  0.122E-01
 -13.871  0.119E-01  0.119E-01
 -13.861  0.116E-01  0.116E-01
 -13.851  0.123E-01  0.123E-01
 -13.841  0.120E-01  0.120E-01
 -13.831  0.116E-01  0.116E-01
 -13.821  0.113E-01  0.113E-01
 -13.811  0.110E-01  0.110E-01
 -13.801  0.106E-01  0.106E-01
 -13.791  0.103E-01  0.103E-01
 -13.781  0.111E-01  0.111E-01
 -13.771  0.107E-01  0.107E-01
 -13.761  0.103E-01  0.103E-01
 -13.751  0.994E-02  0.994E-02
 -13.741  0.956E-02  0.956E-02
 -13.731  0.919E-02  0.919E-02
 -13.721  0.881E-02  0.881E-02
 -13.711  0.952E-02  0.952E-02
 -13.701  0.909E-02  0.909E-02
 -13.691  0.867E-02  0.867E-02
 -13.681  0.824E-02  0.824E-02
 -13.671  0.781E-02  0.781E-02
 -13.661  0.852E-02  0.852E-02
 -13.651  0.802E-02  0.802E-02
 -13.641  0.753E-02  0.753E-02
 -13.631  0.703E-02  0.703E-02
 -13.621  0.653E-02  0.653E-02
 -13.611  0.717E-02  0.717E-02
 -13.601  0.658E-02  0.658E-02
 -13.591  0.598E-02  0.598E-02
 -13.581  0.539E-02  0.539E-02
 -13.571  0.594E-02  0.594E-02
 -13.561  0.520E-02  0.520E-02
 -13.551  0.445E-02  0.445E-02
 -13.541  0.492E-02  0.492E-02
 -13.531  0.393E-02  0.393E-02
 -13.521  0.294E-02  0.294E-02
 -13.511  0.291E-02  0.291E-02
 -13.501  0.143E-02  0.143E-02
 -13.491  0.000E+00  0.000E+00
 -13.481  0.000E+00  0.000E+00
 -13.471  0.000E+00  0.000E+00
 -13.461  0.000E+00  0.000E+00
 -13.451  0.000E+00  0.000E+00
 -13.441  0.000E+00  0.000E+00
 -13.431  0.000E+00  0.000E+00
 -13.421  0.000E+00  0.000E+00
 -13.411  0.000E+00  0.000E+00
 -13.401  0.000E+00  0.000E+00
 -13.391  0.000E+00  0.000E+00
 -13.381  0.000E+00  0.000E+00
 -13.371  0.000E+00  0.000E+00
 -13.361  0.000E+00  0.000E+00
 -13.351  0.000E+00  0.000E+00
 -13.341  0.000E+00  0.000E+00
 -13.331  0.000E+00  0.000E+00
 -13.321  0.000E+00  0.000E+00
 -13.311  0.000E+00  0.000E+00
 -13.301  0.000E+00  0.000E+00
 -13.291  0.000E+00  0.000E+00
 -13.281  0.000E+00  0.000E+00
 -13.271  0.000E+00  0.000E+00
 -13.261  0.000E+00  0.000E+00
 -13.251  0.000E+00  0.000E+00
 -13.241  0.000E+00  0.000E+00
 -13.231  0.000E+00  0.000E+00
 -13.221  0.000E+00  0.000E+00
 -13.211  0.000E+00  0.000E+00
 -13.201  0.000E+00  0.000E+00
 -13.191  0.000E+00  0.000E+00
 -13.181  0.000E+00  0.000E+00
 -13.171  0.000E+00  0.000E+00
 -13.161  0.000E+00  0.000E+00
 -13.151  0.000E+00  0.000E+00
 -13.141  0.000E+00  0.000E+00
 -13.131  0.000E+00  0.000E+00
 -13.121  0.000E+00  0.000E+00
 -13.111  0.000E+00  0.000E+00
 -13.101  0.000E+00  0.000E+00
 -13.091  0.000E+00  0.000E+00
 -13.081  0.000E+00  0.000E+00
 -13.071  0.000E+00  0.000E+00
 -13.061  0.000E+00  0.000E+00
 -13.051  0.000E+00  0.000E+00
 -13.041  0.000E+00  0.000E+00
 -13.031  0.000E+00  0.000E+00
 -13.021  0.000E+00  0.000E+00
 -13.011  0.000E+00  0.000E+00
 -13.001  0.000E+00  0.000E+00
 -12.991  0.000E+00  0.000E+00
 -12.981  0.000E+00  0.000E+00
 -12.971  0.000E+00  0.000E+00
 -12.961  0.000E+00  0.000E+00
 -12.951  0.000E+00  0.000E+00
 -12.941  0.000E+00  0.000E+00
 -12.931  0.000E+00  0.000E+00
 -12.921  0.000E+00  0.000E+00
 -12.911  0.000E+00  0.000E+00
 -12.901  0.000E+00  0.000E+00
 -12.891  0.000E+00  0.000E+00
 -12.881  0.000E+00  0.000E+00
 -12.871  0.000E+00  0.000E+00
 -12.861  0.000E+00  0.000E+00
 -12.851  0.000E+00  0.000E+00
 -12.841  0.000E+00  0.000E+00
 -12.831  0.000E+00  0.000E+00
 -12.821  0.000E+00  0.000E+00
 -12.811  0.000E+00  0.000E+00
 -12.801  0.000E+00  0.000E+00
 -12.791  0.000E+00  0.000E+00
 -12.781  0.000E+00  0.000E+00
 -12.771  0.000E+00  0.000E+00
 -12.761  0.000E+00  0.000E+00
 -12.751  0.000E+00  0.000E+00
 -12.741  0.000E+00  0.000E+00
 -12.731  0.000E+00  0.000E+00
 -12.721  0.000E+00  0.000E+00
 -12.711  0.000E+00  0.000E+00
 -12.701  0.000E+00  0.000E+00
 -12.691  0.000E+00  0.000E+00
 -12.681  0.000E+00  0.000E+00
 -12.671  0.000E+00  0.000E+00
 -12.661  0.000E+00  0.000E+00
 -12.651  0.000E+00  0.000E+00
 -12.641  0.000E+00  0.000E+00
 -12.631  0.000E+00  0.000E+00
 -12.621  0.000E+00  0.000E+00
 -12.611  0.000E+00  0.000E+00
 -12.601  0.000E+00  0.000E+00
 -12.591  0.000E+00  0.000E+00
 -12.581  0.000E+00  0.000E+00
 -12.571  0.000E+00  0.000E+00
 -12.561  0.000E+00  0.000E+00
 -12.551  0.000E+00  0.000E+00
 -12.541  0.000E+00  0.000E+00
 -12.531  0.000E+00  0.000E+00
 -12.521  0.000E+00  0.000E+00
 -12.511  0.000E+00  0.000E+00
 -12.501  0.000E+00  0.000E+00
 -12.491  0.000E+00  0.000E+00
 -12.481  0.000E+00  0.000E+00
 -12.471  0.000E+00  0.000E+00
 -12.461  0.000E+00  0.000E+00
 -12.451  0.000E+00  0.000E+00
 -12.441  0.000E+00  0.000E+00
 -12.431  0.000E+00  0.000E+00
 -12.421  0.000E+00  0.000E+00
 -12.411  0.000E+00  0.000E+00
 -12.401  0.000E+00  0.000E+00
 -12.391  0.000E+00  0.000E+00
 -12.381  0.000E+00  0.000E+00
 -12.371  0.000E+00  0.000E+00
 -12.361  0.000E+00  0.000E+00
 -12.351  0.000E+00  0.000E+00
 -12.341  0.000E+00  0.000E+00
 -12.331  0.000E+00  0.000E+00
 -12.321  0.000E+00  0.000E+00
 -12.311  0.000E+00  0.000E+00
 -12.301  0.000E+00  0.000E+00
 -12.291  0.000E+00  0.000E+00
 -12.281  0.000E+00  0.000E+00
 -12.271  0.000E+00  0.000E+00
 -12.261  0.000E+00  0.000E+00
 -12.251  0.000E+00  0.000E+00
 -12.241  0.000E+00  0.000E+00
 -12.231  0.000E+00  0.000E+00
 -12.221  0.000E+00  0.000E+00
 -12.211  0.000E+00  0.000E+00
 -12.201  0.000E+00  0.000E+00
 -12.191  0.000E+00  0.000E+00
 -12.181  0.000E+00  0.000E+00
 -12.171  0.000E+00  0.000E+00
 -12.161  0.000E+00  0.000E+00
 -12.151  0.000E+00  0.000E+00
 -12.141  0.000E+00  0.000E+00
 -12.131  0.000E+00  0.000E+00
 -12.121  0.000E+00  0.000E+00
 -12.111  0.000E+00  0.000E+00
 -12.101  0.000E+00  0.000E+00
 -12.091  0.000E+00  0.000E+00
 -12.081  0.000E+00  0.000E+00
 -12.071  0.000E+00  0.000E+00
 -12.061  0.000E+00  0.000E+00
 -12.051  0.000E+00  0.000E+00
 -12.041  0.000E+00  0.000E+00
 -12.031  0.000E+00  0.000E+00
 -12.021  0.000E+00  0.000E+00
 -12.011  0.000E+00  0.000E+00
 -12.001  0.000E+00  0.000E+00
 -11.991  0.000E+00  0.000E+00
 -11.981  0.000E+00  0.000E+00
 -11.971  0.000E+00  0.000E+00
 -11.961  0.000E+00  0.000E+00
 -11.951  0.000E+00  0.000E+00
 -11.941  0.000E+00  0.000E+00
 -11.931  0.000E+00  0.000E+00
 -11.921  0.000E+00  0.000E+00
 -11.911  0.000E+00  0.000E+00
 -11.901  0.000E+00  0.000E+00
 -11.891  0.000E+00  0.000E+00
 -11.881  0.000E+00  0.000E+00
 -11.871  0.000E+00  0.000E+00
 -11.861  0.000E+00  0.000E+00
 -11.851  0.000E+00  0.000E+00
 -11.841  0.000E+00  0.000E+00
 -11.831  0.000E+00  0.000E+00
 -11.821  0.000E+00  0.000E+00
 -11.811  0.000E+00  0.000E+00
 -11.801  0.000E+00  0.000E+00
 -11.791  0.000E+00  0.000E+00
 -11.781  0.000E+00  0.000E+00
 -11.771  0.000E+00  0.000E+00
 -11.761  0.000E+00  0.000E+00
 -11.751  0.000E+00  0.000E+00
 -11.741  0.000E+00  0.000E+00
 -11.731  0.000E+00  0.000E+00
 -11.721  0.000E+00  0.000E+00
 -11.711  0.000E+00  0.000E+00
 -11.701  0.000E+00  0.000E+00
 -11.691  0.000E+00  0.000E+00
 -11.681  0.000E+00  0.000E+00
 -11.671  0.000E+00  0.000E+00
 -11.661  0.000E+00  0.000E+00
 -11.651  0.000E+00  0.000E+00
 -11.641  0.000E+00  0.000E+00
 -11.631  0.000E+00  0.000E+00
 -11.621  0.000E+00  0.000E+00
 -11.611  0.000E+00  0.000E+00
 -11.601  0.000E+00  0.000E+00
 -11.591  0.000E+00  0.000E+00
 -11.581  0.000E+00  0.000E+00
 -11.571  0.000E+00  0.000E+00
 -11.561  0.000E+00  0.000E+00
 -11.551  0.000E+00  0.000E+00
 -11.541  0.000E+00  0.000E+00
 -11.531  0.000E+00  0.000E+00
 -11.521  0.000E+00  0.000E+00
 -11.511  0.000E+00  0.000E+00
 -11.501  0.000E+00  0.000E+00
 -11.491  0.000E+00  0.000E+00
 -11.481  0.000E+00  0.000E+00
 -11.471  0.000E+00  0.000E+00
 -11.461  0.000E+00  0.000E+00
 -11.451  0.000E+00  0.000E+00
 -11.441  0.000E+00  0.000E+00
 -11.431  0.000E+00  0.000E+00
 -11.421  0.000E+00  0.000E+00
 -11.411  0.000E+00  0.000E+00
 -11.401  0.000E+00  0.000E+00
 -11.391  0.000E+00  0.000E+00
 -11.381  0.000E+00  0.000E+00
 -11.371  0.000E+00  0.000E+00
 -11.361  0.000E+00  0.000E+00
 -11.351  0.000E+00  0.000E+00
 -11.341  0.000E+00  0.000E+00
 -11.331  0.000E+00  0.000E+00
 -11.321  0.000E+00  0.000E+00
 -11.311  0.000E+00  0.000E+00
 -11.301  0.000E+00  0.000E+00
 -11.291  0.000E+00  0.000E+00
 -11.281  0.000E+00  0.000E+00
 -11.271  0.000E+00  0.000E+00
 -11.261  0.000E+00  0.000E+00
 -11.251  0.000E+00  0.000E+00
 -11.241  0.000E+00  0.000E+00
 -11.231  0.000E+00  0.000E+00
 -11.221  0.000E+00  0.000E+00
 -11.211  0.000E+00  0.000E+00
 -11.201  0.000E+00  0.000E+00
 -11.191  0.000E+00  0.000E+00
 -11.181  0.000E+00  0.000E+00
 -11.171  0.000E+00  0.000E+00
 -11.161  0.000E+00  0.000E+00
 -11.151  0.000E+00  0.000E+00
 -11.141  0.000E+00  0.000E+00
 -11.131  0.000E+00  0.000E+00
 -11.121  0.000E+00  0.000E+00
 -11.111  0.000E+00  0.000E+00
 -11.101  0.000E+00  0.000E+00
 -11.091  0.000E+00  0.000E+00
 -11.081  0.000E+00  0.000E+00
 -11.071  0.000E+00  0.000E+00
 -11.061  0.000E+00  0.000E+00
 -11.051  0.000E+00  0.000E+00
 -11.041  0.000E+00  0.000E+00
 -11.031  0.000E+00  0.000E+00
 -11.021  0.000E+00  0.000E+00
 -11.011  0.000E+00  0.000E+00
 -11.001  0.000E+00  0.000E+00
 -10.991  0.000E+00  0.000E+00
 -10.981  0.000E+00  0.000E+00
 -10.971  0.000E+00  0.000E+00
 -10.961  0.000E+00  0.000E+00
 -10.951  0.000E+00  0.000E+00
 -10.941  0.000E+00  0.000E+00
 -10.931  0.000E+00  0.000E+00
 -10.921  0.000E+00  0.000E+00
 -10.911  0.000E+00  0.000E+00
 -10.901  0.000E+00  0.000E+00
 -10.891  0.000E+00  0.000E+00
 -10.881  0.000E+00  0.000E+00
 -10.871  0.000E+00  0.000E+00
 -10.861  0.000E+00  0.000E+00
 -10.851  0.000E+00  0.000E+00
 -10.841  0.000E+00  0.000E+00
 -10.831  0.000E+00  0.000E+00
 -10.821  0.000E+00  0.000E+00
 -10.811  0.000E+00  0.000E+00
 -10.801  0.000E+00  0.000E+00
 -10.791  0.000E+00  0.000E+00
 -10.781  0.000E+00  0.000E+00
 -10.771  0.000E+00  0.000E+00
 -10.761  0.000E+00  0.000E+00
 -10.751  0.000E+00  0.000E+00
 -10.741  0.000E+00  0.000E+00
 -10.731  0.000E+00  0.000E+00
 -10.721  0.000E+00  0.000E+00
 -10.711  0.000E+00  0.000E+00
 -10.701  0.000E+00  0.000E+00
 -10.691  0.000E+00  0.000E+00
 -10.681  0.000E+00  0.000E+00
 -10.671  0.000E+00  0.000E+00
 -10.661  0.000E+00  0.000E+00
 -10.651  0.000E+00  0.000E+00
 -10.641  0.000E+00  0.000E+00
 -10.631  0.000E+00  0.000E+00
 -10.621  0.000E+00  0.000E+00
 -10.611  0.000E+00  0.000E+00
 -10.601  0.000E+00  0.000E+00
 -10.591  0.000E+00  0.000E+00
 -10.581  0.000E+00  0.000E+00
 -10.571  0.000E+00  0.000E+00
 -10.561  0.000E+00  0.000E+00
 -10.551  0.000E+00  0.000E+00
 -10.541  0.000E+00  0.000E+00
 -10.531  0.000E+00  0.000E+00
 -10.521  0.000E+00  0.000E+00
 -10.511  0.000E+00  0.000E+00
 -10.501  0.000E+00  0.000E+00
 -10.491  0.000E+00  0.000E+00
 -10.481  0.000E+00  0.000E+00
 -10.471  0.000E+00  0.000E+00
 -10.461  0.000E+00  0.000E+00
 -10.451  0.000E+00  0.000E+00
 -10.441  0.000E+00  0.000E+00
 -10.431  0.000E+00  0.000E+00
 -10.421  0.000E+00  0.000E+00
 -10.411  0.000E+00  0.000E+00
 -10.401  0.000E+00  0.000E+00
 -10.391  0.000E+00  0.000E+00
 -10.381  0.000E+00  0.000E+00
 -10.371  0.000E+00  0.000E+00
 -10.361  0.000E+00  0.000E+00
 -10.351  0.000E+00  0.000E+00
 -10.341  0.000E+00  0.000E+00
 -10.331  0.000E+00  0.000E+00
 -10.321  0.000E+00  0.000E+00
 -10.311  0.000E+00  0.000E+00
 -10.301  0.000E+00  0.000E+00
 -10.291  0.000E+00  0.000E+00
 -10.281  0.000E+00  0.000E+00
 -10.271  0.000E+00  0.000E+00
 -10.261  0.000E+00  0.000E+00
 -10.251  0.000E+00  0.000E+00
 -10.241  0.000E+00  0.000E+00
 -10.231  0.000E+00  0.000E+00
 -10.221  0.000E+00  0.000E+00
 -10.211  0.000E+00  0.000E+00
 -10.201  0.000E+00  0.000E+00
 -10.191  0.000E+00  0.000E+00
 -10.181  0.000E+00  0.000E+00
 -10.171  0.000E+00  0.000E+00
 -10.161  0.000E+00  0.000E+00
 -10.151  0.000E+00  0.000E+00
 -10.141  0.000E+00  0.000E+00
 -10.131  0.000E+00  0.000E+00
 -10.121  0.000E+00  0.000E+00
 -10.111  0.000E+00  0.000E+00
 -10.101  0.000E+00  0.000E+00
 -10.091  0.000E+00  0.000E+00
 -10.081  0.000E+00  0.000E+00
 -10.071  0.000E+00  0.000E+00
 -10.061  0.000E+00  0.000E+00
 -10.051  0.000E+00  0.000E+00
 -10.041  0.000E+00  0.000E+00
 -10.031  0.000E+00  0.000E+00
 -10.021  0.000E+00  0.000E+00
 -10.011  0.000E+00  0.000E+00
 -10.001  0.000E+00  0.000E+00
  -9.991  0.000E+00  0.000E+00
  -9.981  0.000E+00  0.000E+00
  -9.971  0.000E+00  0.000E+00
  -9.961  0.000E+00  0.000E+00
  -9.951  0.000E+00  0.000E+00
  -9.941  0.000E+00  0.000E+00
  -9.931  0.000E+00  0.000E+00
  -9.921  0.000E+00  0.000E+00
  -9.911  0.000E+00  0.000E+00
  -9.901  0.000E+00  0.000E+00
  -9.891  0.000E+00  0.000E+00
  -9.881  0.000E+00  0.000E+00
  -9.871  0.000E+00  0.000E+00
  -9.861  0.000E+00  0.000E+00
  -9.851  0.000E+00  0.000E+00
  -9.841  0.000E+00  0.000E+00
  -9.831  0.000E+00  0.000E+00
  -9.821  0.000E+00  0.000E+00
  -9.811  0.000E+00  0.000E+00
  -9.801  0.000E+00  0.000E+00
  -9.791  0.000E+00  0.000E+00
  -9.781  0.000E+00  0.000E+00
  -9.771  0.000E+00  0.000E+00
  -9.761  0.000E+00  0.000E+00
  -9.751  0.000E+00  0.000E+00
  -9.741  0.633E-12  0.633E-12
  -9.731  0.225E-12  0.225E-12
  -9.721  0.128E-12  0.128E-12
  -9.711  0.233E-12  0.233E-12
  -9.701  0.202E-12  0.202E-12
  -9.691  0.121E-12  0.121E-12
  -9.681  0.406E-13  0.406E-13
  -9.671  0.148E-13  0.148E-13
  -9.661  0.174E-13  0.174E-13
  -9.651  0.201E-13  0.201E-13
  -9.641  0.221E-13  0.221E-13
  -9.631  0.320E-13  0.320E-13
  -9.621  0.419E-13  0.419E-13
  -9.611  0.518E-13  0.518E-13
  -9.601  0.523E-13  0.523E-13
  -9.591  0.594E-13  0.594E-13
  -9.581  0.665E-13  0.665E-13
  -9.571  0.736E-13  0.736E-13
  -9.561  0.807E-13  0.807E-13
  -9.551  0.782E-13  0.782E-13
  -9.541  0.860E-13  0.860E-13
  -9.531  0.938E-13  0.938E-13
  -9.521  0.102E-12  0.102E-12
  -9.511  0.109E-12  0.109E-12
  -9.501  0.100E-12  0.100E-12
  -9.491  0.997E-13  0.997E-13
  -9.481  0.994E-13  0.994E-13
  -9.471  0.991E-13  0.991E-13
  -9.461  0.988E-13  0.988E-13
  -9.451  0.984E-13  0.984E-13
  -9.441  0.881E-13  0.881E-13
  -9.431  0.874E-13  0.874E-13
  -9.421  0.867E-13  0.867E-13
  -9.411  0.861E-13  0.861E-13
  -9.401  0.854E-13  0.854E-13
  -9.391  0.847E-13  0.847E-13
  -9.381  0.759E-13  0.759E-13
  -9.371  0.685E-13  0.685E-13
  -9.361  0.611E-13  0.611E-13
  -9.351  0.536E-13  0.536E-13
  -9.341  0.462E-13  0.462E-13
  -9.331  0.387E-13  0.387E-13
  -9.321  0.313E-13  0.313E-13
  -9.311  0.239E-13  0.239E-13
  -9.301  0.855E-13  0.855E-13
  -9.291  0.162E-12  0.162E-12
  -9.281  0.239E-12  0.239E-12
  -9.271  0.316E-12  0.316E-12
  -9.261  0.393E-12  0.393E-12
  -9.251  0.469E-12  0.469E-12
  -9.241  0.546E-12  0.546E-12
  -9.231  0.623E-12  0.623E-12
  -9.221  0.590E-12  0.590E-12
  -9.211  0.601E-12  0.601E-12
  -9.201  0.612E-12  0.612E-12
  -9.191  0.624E-12  0.624E-12
  -9.181  0.635E-12  0.635E-12
  -9.171  0.647E-12  0.647E-12
  -9.161  0.658E-12  0.658E-12
  -9.151  0.670E-12  0.670E-12
  -9.141  0.614E-12  0.614E-12
  -9.131  0.578E-12  0.578E-12
  -9.121  0.542E-12  0.542E-12
  -9.111  0.506E-12  0.506E-12
  -9.101  0.470E-12  0.470E-12
  -9.091  0.434E-12  0.434E-12
  -9.081  0.398E-12  0.398E-12
  -9.071  0.362E-12  0.362E-12
  -9.061  0.326E-12  0.326E-12
  -9.051  0.275E-12  0.275E-12
  -9.041  0.261E-12  0.261E-12
  -9.031  0.247E-12  0.247E-12
  -9.021  0.234E-12  0.234E-12
  -9.011  0.220E-12  0.220E-12
  -9.001  0.206E-12  0.206E-12
  -8.991  0.192E-12  0.192E-12
  -8.981  0.179E-12  0.179E-12
  -8.971  0.165E-12  0.165E-12
  -8.961  0.151E-12  0.151E-12
  -8.951  0.130E-12  0.130E-12
  -8.941  0.121E-12  0.121E-12
  -8.931  0.111E-12  0.111E-12
  -8.921  0.102E-12  0.102E-12
  -8.911  0.920E-13  0.920E-13
  -8.901  0.825E-13  0.825E-13
  -8.891  0.730E-13  0.730E-13
  -8.881  0.635E-13  0.635E-13
  -8.871  0.540E-13  0.540E-13
  -8.861  0.445E-13  0.445E-13
  -8.851  0.350E-13  0.350E-13
  -8.841  0.398E-13  0.398E-13
  -8.831  0.492E-13  0.492E-13
  -8.821  0.585E-13  0.585E-13
  -8.811  0.678E-13  0.678E-13
  -8.801  0.772E-13  0.772E-13
  -8.791  0.865E-13  0.865E-13
  -8.781  0.959E-13  0.959E-13
  -8.771  0.105E-12  0.105E-12
  -8.761  0.115E-12  0.115E-12
  -8.751  0.124E-12  0.124E-12
  -8.741  0.133E-12  0.133E-12
  -8.731  0.125E-12  0.125E-12
  -8.721  0.120E-12  0.120E-12
  -8.711  0.115E-12  0.115E-12
  -8.701  0.110E-12  0.110E-12
  -8.691  0.105E-12  0.105E-12
  -8.681  0.100E-12  0.100E-12
  -8.671  0.950E-13  0.950E-13
  -8.661  0.900E-13  0.900E-13
  -8.651  0.851E-13  0.851E-13
  -8.641  0.801E-13  0.801E-13
  -8.631  0.751E-13  0.751E-13
  -8.621  0.702E-13  0.702E-13
  -8.611  0.613E-13  0.613E-13
  -8.601  0.561E-13  0.561E-13
  -8.591  0.509E-13  0.509E-13
  -8.581  0.457E-13  0.457E-13
  -8.571  0.405E-13  0.405E-13
  -8.561  0.352E-13  0.352E-13
  -8.551  0.300E-13  0.300E-13
  -8.541  0.248E-13  0.248E-13
  -8.531  0.196E-13  0.196E-13
  -8.521  0.143E-13  0.143E-13
  -8.511  0.912E-14  0.912E-14
  -8.501  0.390E-14  0.390E-14
  -8.491  0.126E-14  0.126E-14
  -8.481  0.164E-14  0.164E-14
  -8.471  0.202E-14  0.202E-14
  -8.461  0.239E-14  0.239E-14
  -8.451  0.277E-14  0.277E-14
  -8.441  0.315E-14  0.315E-14
  -8.431  0.352E-14  0.352E-14
  -8.421  0.390E-14  0.390E-14
  -8.411  0.428E-14  0.428E-14
  -8.401  0.465E-14  0.465E-14
  -8.391  0.503E-14  0.503E-14
  -8.381  0.541E-14  0.541E-14
  -8.371  0.578E-14  0.578E-14
  -8.361  0.584E-14  0.584E-14
  -8.351  0.611E-14  0.611E-14
  -8.341  0.639E-14  0.639E-14
  -8.331  0.666E-14  0.666E-14
  -8.321  0.693E-14  0.693E-14
  -8.311  0.721E-14  0.721E-14
  -8.301  0.748E-14  0.748E-14
  -8.291  0.776E-14  0.776E-14
  -8.281  0.803E-14  0.803E-14
  -8.271  0.830E-14  0.830E-14
  -8.261  0.858E-14  0.858E-14
  -8.251  0.885E-14  0.885E-14
  -8.241  0.912E-14  0.912E-14
  -8.231  0.940E-14  0.940E-14
  -8.221  0.126E-13  0.126E-13
  -8.211  0.181E-13  0.181E-13
  -8.201  0.236E-13  0.236E-13
  -8.191  0.291E-13  0.291E-13
  -8.181  0.346E-13  0.346E-13
  -8.171  0.401E-13  0.401E-13
  -8.161  0.456E-13  0.456E-13
  -8.151  0.512E-13  0.512E-13
  -8.141  0.567E-13  0.567E-13
  -8.131  0.622E-13  0.622E-13
  -8.121  0.677E-13  0.677E-13
  -8.111  0.732E-13  0.732E-13
  -8.101  0.787E-13  0.787E-13
  -8.091  0.842E-13  0.842E-13
  -8.081  0.832E-13  0.832E-13
  -8.071  0.781E-13  0.781E-13
  -8.061  0.731E-13  0.731E-13
  -8.051  0.680E-13  0.680E-13
  -8.041  0.630E-13  0.630E-13
  -8.031  0.579E-13  0.579E-13
  -8.021  0.529E-13  0.529E-13
  -8.011  0.478E-13  0.478E-13
  -8.001  0.428E-13  0.428E-13
  -7.991  0.377E-13  0.377E-13
  -7.981  0.327E-13  0.327E-13
  -7.971  0.276E-13  0.276E-13
  -7.961  0.226E-13  0.226E-13
  -7.951  0.175E-13  0.175E-13
  -7.941  0.124E-13  0.124E-13
  -7.931  0.825E-14  0.825E-14
  -7.921  0.823E-14  0.823E-14
  -7.911  0.820E-14  0.820E-14
  -7.901  0.817E-14  0.817E-14
  -7.891  0.815E-14  0.815E-14
  -7.881  0.812E-14  0.812E-14
  -7.871  0.810E-14  0.810E-14
  -7.861  0.807E-14  0.807E-14
  -7.851  0.805E-14  0.805E-14
  -7.841  0.802E-14  0.802E-14
  -7.831  0.799E-14  0.799E-14
  -7.821  0.797E-14  0.797E-14
  -7.811  0.794E-14  0.794E-14
  -7.801  0.792E-14  0.792E-14
  -7.791  0.789E-14  0.789E-14
  -7.781  0.786E-14  0.786E-14
  -7.771  0.765E-14  0.765E-14
  -7.761  0.783E-14  0.783E-14
  -7.751  0.801E-14  0.801E-14
  -7.741  0.819E-14  0.819E-14
  -7.731  0.837E-14  0.837E-14
  -7.721  0.855E-14  0.855E-14
  -7.711  0.873E-14  0.873E-14
  -7.701  0.891E-14  0.891E-14
  -7.691  0.909E-14  0.909E-14
  -7.681  0.927E-14  0.927E-14
  -7.671  0.945E-14  0.945E-14
  -7.661  0.963E-14  0.963E-14
  -7.651  0.981E-14  0.981E-14
  -7.641  0.999E-14  0.999E-14
  -7.631  0.102E-13  0.102E-13
  -7.621  0.103E-13  0.103E-13
  -7.611  0.103E-13  0.103E-13
  -7.601  0.110E-13  0.110E-13
  -7.591  0.117E-13  0.117E-13
  -7.581  0.123E-13  0.123E-13
  -7.571  0.130E-13  0.130E-13
  -7.561  0.137E-13  0.137E-13
  -7.551  0.144E-13  0.144E-13
  -7.541  0.151E-13  0.151E-13
  -7.531  0.158E-13  0.158E-13
  -7.521  0.165E-13  0.165E-13
  -7.511  0.172E-13  0.172E-13
  -7.501  0.178E-13  0.178E-13
  -7.491  0.185E-13  0.185E-13
  -7.481  0.192E-13  0.192E-13
  -7.471  0.199E-13  0.199E-13
  -7.461  0.206E-13  0.206E-13
  -7.451  0.213E-13  0.213E-13
  -7.441  0.210E-13  0.210E-13
  -7.431  0.211E-13  0.211E-13
  -7.421  0.211E-13  0.211E-13
  -7.411  0.212E-13  0.212E-13
  -7.401  0.213E-13  0.213E-13
  -7.391  0.214E-13  0.214E-13
  -7.381  0.215E-13  0.215E-13
  -7.371  0.216E-13  0.216E-13
  -7.361  0.217E-13  0.217E-13
  -7.351  0.218E-13  0.218E-13
  -7.341  0.219E-13  0.219E-13
  -7.331  0.219E-13  0.219E-13
  -7.321  0.220E-13  0.220E-13
  -7.311  0.221E-13  0.221E-13
  -7.301  0.222E-13  0.222E-13
  -7.291  0.223E-13  0.223E-13
  -7.281  0.224E-13  0.224E-13
  -7.271  0.225E-13  0.225E-13
  -7.261  0.210E-13  0.210E-13
  -7.251  0.200E-13  0.200E-13
  -7.241  0.190E-13  0.190E-13
  -7.231  0.181E-13  0.181E-13
  -7.221  0.171E-13  0.171E-13
  -7.211  0.161E-13  0.161E-13
  -7.201  0.152E-13  0.152E-13
  -7.191  0.142E-13  0.142E-13
  -7.181  0.132E-13  0.132E-13
  -7.171  0.123E-13  0.123E-13
  -7.161  0.113E-13  0.113E-13
  -7.151  0.104E-13  0.104E-13
  -7.141  0.939E-14  0.939E-14
  -7.131  0.843E-14  0.843E-14
  -7.121  0.747E-14  0.747E-14
  -7.111  0.650E-14  0.650E-14
  -7.101  0.554E-14  0.554E-14
  -7.091  0.457E-14  0.457E-14
  -7.081  0.453E-14  0.453E-14
  -7.071  0.536E-14  0.536E-14
  -7.061  0.620E-14  0.620E-14
  -7.051  0.703E-14  0.703E-14
  -7.041  0.787E-14  0.787E-14
  -7.031  0.870E-14  0.870E-14
  -7.021  0.953E-14  0.953E-14
  -7.011  0.104E-13  0.104E-13
  -7.001  0.112E-13  0.112E-13
  -6.991  0.120E-13  0.120E-13
  -6.981  0.129E-13  0.129E-13
  -6.971  0.137E-13  0.137E-13
  -6.961  0.145E-13  0.145E-13
  -6.951  0.154E-13  0.154E-13
  -6.941  0.162E-13  0.162E-13
  -6.931  0.170E-13  0.170E-13
  -6.921  0.179E-13  0.179E-13
  -6.911  0.187E-13  0.187E-13
  -6.901  0.195E-13  0.195E-13
  -6.891  0.251E-13  0.251E-13
  -6.881  0.330E-13  0.330E-13
  -6.871  0.408E-13  0.408E-13
  -6.861  0.487E-13  0.487E-13
  -6.851  0.565E-13  0.565E-13
  -6.841  0.644E-13  0.644E-13
  -6.831  0.722E-13  0.722E-13
  -6.821  0.801E-13  0.801E-13
  -6.811  0.879E-13  0.879E-13
  -6.801  0.958E-13  0.958E-13
  -6.791  0.104E-12  0.104E-12
  -6.781  0.111E-12  0.111E-12
  -6.771  0.119E-12  0.119E-12
  -6.761  0.127E-12  0.127E-12
  -6.751  0.135E-12  0.135E-12
  -6.741  0.143E-12  0.143E-12
  -6.731  0.151E-12  0.151E-12
  -6.721  0.159E-12  0.159E-12
  -6.711  0.166E-12  0.166E-12
  -6.701  0.167E-12  0.167E-12
  -6.691  0.169E-12  0.169E-12
  -6.681  0.172E-12  0.172E-12
  -6.671  0.174E-12  0.174E-12
  -6.661  0.176E-12  0.176E-12
  -6.651  0.179E-12  0.179E-12
  -6.641  0.181E-12  0.181E-12
  -6.631  0.183E-12  0.183E-12
  -6.621  0.186E-12  0.186E-12
  -6.611  0.188E-12  0.188E-12
  -6.601  0.190E-12  0.190E-12
  -6.591  0.192E-12  0.192E-12
  -6.581  0.195E-12  0.195E-12
  -6.571  0.197E-12  0.197E-12
  -6.561  0.199E-12  0.199E-12
  -6.551  0.202E-12  0.202E-12
  -6.541  0.204E-12  0.204E-12
  -6.531  0.206E-12  0.206E-12
  -6.521  0.208E-12  0.208E-12
  -6.511  0.211E-12  0.211E-12
  -6.501  0.205E-12  0.205E-12
  -6.491  0.198E-12  0.198E-12
  -6.481  0.192E-12  0.192E-12
  -6.471  0.186E-12  0.186E-12
  -6.461  0.180E-12  0.180E-12
  -6.451  0.173E-12  0.173E-12
  -6.441  0.167E-12  0.167E-12
  -6.431  0.161E-12  0.161E-12
  -6.421  0.155E-12  0.155E-12
  -6.411  0.149E-12  0.149E-12
  -6.401  0.142E-12  0.142E-12
  -6.391  0.136E-12  0.136E-12
  -6.381  0.130E-12  0.130E-12
  -6.371  0.124E-12  0.124E-12
  -6.361  0.117E-12  0.117E-12
  -6.351  0.111E-12  0.111E-12
  -6.341  0.105E-12  0.105E-12
  -6.331  0.987E-13  0.987E-13
  -6.321  0.925E-13  0.925E-13
  -6.311  0.863E-13  0.863E-13
  -6.301  0.801E-13  0.801E-13
  -6.291  0.743E-13  0.743E-13
  -6.281  0.730E-13  0.730E-13
  -6.271  0.716E-13  0.716E-13
  -6.261  0.702E-13  0.702E-13
  -6.251  0.688E-13  0.688E-13
  -6.241  0.674E-13  0.674E-13
  -6.231  0.660E-13  0.660E-13
  -6.221  0.646E-13  0.646E-13
  -6.211  0.632E-13  0.632E-13
  -6.201  0.618E-13  0.618E-13
  -6.191  0.604E-13  0.604E-13
  -6.181  0.591E-13  0.591E-13
  -6.171  0.577E-13  0.577E-13
  -6.161  0.563E-13  0.563E-13
  -6.151  0.549E-13  0.549E-13
  -6.141  0.535E-13  0.535E-13
  -6.131  0.521E-13  0.521E-13
  -6.121  0.507E-13  0.507E-13
  -6.111  0.493E-13  0.493E-13
  -6.101  0.479E-13  0.479E-13
  -6.091  0.465E-13  0.465E-13
  -6.081  0.440E-13  0.440E-13
  -6.071  0.430E-13  0.430E-13
  -6.061  0.419E-13  0.419E-13
  -6.051  0.409E-13  0.409E-13
  -6.041  0.399E-13  0.399E-13
  -6.031  0.388E-13  0.388E-13
  -6.021  0.378E-13  0.378E-13
  -6.011  0.368E-13  0.368E-13
  -6.001  0.357E-13  0.357E-13
  -5.991  0.347E-13  0.347E-13
  -5.981  0.336E-13  0.336E-13
  -5.971  0.326E-13  0.326E-13
  -5.961  0.316E-13  0.316E-13
  -5.951  0.305E-13  0.305E-13
  -5.941  0.295E-13  0.295E-13
  -5.931  0.285E-13  0.285E-13
  -5.921  0.274E-13  0.274E-13
  -5.911  0.264E-13  0.264E-13
  -5.901  0.254E-13  0.254E-13
  -5.891  0.243E-13  0.243E-13
  -5.881  0.233E-13  0.233E-13
  -5.871  0.223E-13  0.223E-13
  -5.861  0.212E-13  0.212E-13
  -5.851  0.216E-13  0.216E-13
  -5.841  0.221E-13  0.221E-13
  -5.831  0.225E-13  0.225E-13
  -5.821  0.229E-13  0.229E-13
  -5.811  0.234E-13  0.234E-13
  -5.801  0.238E-13  0.238E-13
  -5.791  0.243E-13  0.243E-13
  -5.781  0.247E-13  0.247E-13
  -5.771  0.251E-13  0.251E-13
  -5.761  0.256E-13  0.256E-13
  -5.751  0.260E-13  0.260E-13
  -5.741  0.265E-13  0.265E-13
  -5.731  0.269E-13  0.269E-13
  -5.721  0.273E-13  0.273E-13
  -5.711  0.278E-13  0.278E-13
  -5.701  0.282E-13  0.282E-13
  -5.691  0.287E-13  0.287E-13
  -5.681  0.291E-13  0.291E-13
  -5.671  0.295E-13  0.295E-13
  -5.661  0.300E-13  0.300E-13
  -5.651  0.304E-13  0.304E-13
  -5.641  0.309E-13  0.309E-13
  -5.631  0.297E-13  0.297E-13
  -5.621  0.292E-13  0.292E-13
  -5.611  0.288E-13  0.288E-13
  -5.601  0.283E-13  0.283E-13
  -5.591  0.278E-13  0.278E-13
  -5.581  0.273E-13  0.273E-13
  -5.571  0.268E-13  0.268E-13
  -5.561  0.263E-13  0.263E-13
  -5.551  0.258E-13  0.258E-13
  -5.541  0.254E-13  0.254E-13
  -5.531  0.249E-13  0.249E-13
  -5.521  0.244E-13  0.244E-13
  -5.511  0.239E-13  0.239E-13
  -5.501  0.234E-13  0.234E-13
  -5.491  0.229E-13  0.229E-13
  -5.481  0.224E-13  0.224E-13
  -5.471  0.220E-13  0.220E-13
  -5.461  0.215E-13  0.215E-13
  -5.451  0.210E-13  0.210E-13
  -5.441  0.205E-13  0.205E-13
  -5.431  0.200E-13  0.200E-13
  -5.421  0.195E-13  0.195E-13
  -5.411  0.191E-13  0.191E-13
  -5.401  0.186E-13  0.186E-13
  -5.391  0.189E-13  0.189E-13
  -5.381  0.191E-13  0.191E-13
  -5.371  0.194E-13  0.194E-13
  -5.361  0.197E-13  0.197E-13
  -5.351  0.199E-13  0.199E-13
  -5.341  0.202E-13  0.202E-13
  -5.331  0.204E-13  0.204E-13
  -5.321  0.207E-13  0.207E-13
  -5.311  0.209E-13  0.209E-13
  -5.301  0.212E-13  0.212E-13
  -5.291  0.215E-13  0.215E-13
  -5.281  0.217E-13  0.217E-13
  -5.271  0.220E-13  0.220E-13
  -5.261  0.222E-13  0.222E-13
  -5.251  0.225E-13  0.225E-13
  -5.241  0.227E-13  0.227E-13
  -5.231  0.230E-13  0.230E-13
  -5.221  0.232E-13  0.232E-13
  -5.211  0.235E-13  0.235E-13
  -5.201  0.238E-13  0.238E-13
  -5.191  0.240E-13  0.240E-13
  -5.181  0.243E-13  0.243E-13
  -5.171  0.239E-13  0.239E-13
  -5.161  0.229E-13  0.229E-13
  -5.151  0.220E-13  0.220E-13
  -5.141  0.210E-13  0.210E-13
  -5.131  0.201E-13  0.201E-13
  -5.121  0.191E-13  0.191E-13
  -5.111  0.182E-13  0.182E-13
  -5.101  0.172E-13  0.172E-13
  -5.091  0.163E-13  0.163E-13
  -5.081  0.153E-13  0.153E-13
  -5.071  0.144E-13  0.144E-13
  -5.061  0.134E-13  0.134E-13
  -5.051  0.125E-13  0.125E-13
  -5.041  0.115E-13  0.115E-13
  -5.031  0.106E-13  0.106E-13
  -5.021  0.963E-14  0.963E-14
  -5.011  0.868E-14  0.868E-14
  -5.001  0.773E-14  0.773E-14
  -4.991  0.678E-14  0.678E-14
  -4.981  0.583E-14  0.583E-14
  -4.971  0.488E-14  0.488E-14
  -4.961  0.393E-14  0.393E-14
  -4.951  0.298E-14  0.298E-14
  -4.941  0.203E-14  0.203E-14
  -4.931  0.108E-14  0.108E-14
  -4.921  0.166E-14  0.166E-14
  -4.911  0.286E-14  0.286E-14
  -4.901  0.407E-14  0.407E-14
  -4.891  0.527E-14  0.527E-14
  -4.881  0.647E-14  0.647E-14
  -4.871  0.767E-14  0.767E-14
  -4.861  0.887E-14  0.887E-14
  -4.851  0.101E-13  0.101E-13
  -4.841  0.113E-13  0.113E-13
  -4.831  0.125E-13  0.125E-13
  -4.821  0.137E-13  0.137E-13
  -4.811  0.149E-13  0.149E-13
  -4.801  0.161E-13  0.161E-13
  -4.791  0.173E-13  0.173E-13
  -4.781  0.185E-13  0.185E-13
  -4.771  0.197E-13  0.197E-13
  -4.761  0.209E-13  0.209E-13
  -4.751  0.221E-13  0.221E-13
  -4.741  0.233E-13  0.233E-13
  -4.731  0.245E-13  0.245E-13
  -4.721  0.257E-13  0.257E-13
  -4.711  0.269E-13  0.269E-13
  -4.701  0.281E-13  0.281E-13
  -4.691  0.293E-13  0.293E-13
  -4.681  0.305E-13  0.305E-13
  -4.671  0.302E-13  0.302E-13
  -4.661  0.302E-13  0.302E-13
  -4.651  0.302E-13  0.302E-13
  -4.641  0.303E-13  0.303E-13
  -4.631  0.303E-13  0.303E-13
  -4.621  0.304E-13  0.304E-13
  -4.611  0.304E-13  0.304E-13
  -4.601  0.305E-13  0.305E-13
  -4.591  0.305E-13  0.305E-13
  -4.581  0.306E-13  0.306E-13
  -4.571  0.306E-13  0.306E-13
  -4.561  0.307E-13  0.307E-13
  -4.551  0.307E-13  0.307E-13
  -4.541  0.307E-13  0.307E-13
  -4.531  0.308E-13  0.308E-13
  -4.521  0.308E-13  0.308E-13
  -4.511  0.309E-13  0.309E-13
  -4.501  0.309E-13  0.309E-13
  -4.491  0.310E-13  0.310E-13
  -4.481  0.310E-13  0.310E-13
  -4.471  0.311E-13  0.311E-13
  -4.461  0.311E-13  0.311E-13
  -4.451  0.311E-13  0.311E-13
  -4.441  0.312E-13  0.312E-13
  -4.431  0.312E-13  0.312E-13
  -4.421  0.396E-12  0.396E-12
  -4.411  0.382E-12  0.382E-12
  -4.401  0.369E-12  0.369E-12
  -4.391  0.355E-12  0.355E-12
  -4.381  0.342E-12  0.342E-12
  -4.371  0.328E-12  0.328E-12
  -4.361  0.315E-12  0.315E-12
  -4.351  0.301E-12  0.301E-12
  -4.341  0.288E-12  0.288E-12
  -4.331  0.274E-12  0.274E-12
  -4.321  0.261E-12  0.261E-12
  -4.311  0.247E-12  0.247E-12
  -4.301  0.234E-12  0.234E-12
  -4.291  0.220E-12  0.220E-12
  -4.281  0.207E-12  0.207E-12
  -4.271  0.193E-12  0.193E-12
  -4.261  0.180E-12  0.180E-12
  -4.251  0.166E-12  0.166E-12
  -4.241  0.153E-12  0.153E-12
  -4.231  0.139E-12  0.139E-12
  -4.221  0.126E-12  0.126E-12
  -4.211  0.113E-12  0.113E-12
  -4.201  0.990E-13  0.990E-13
  -4.191  0.856E-13  0.856E-13
  -4.181  0.721E-13  0.721E-13
  -4.171  0.586E-13  0.586E-13
  -4.161  0.481E-13  0.481E-13
  -4.151  0.465E-13  0.465E-13
  -4.141  0.449E-13  0.449E-13
  -4.131  0.433E-13  0.433E-13
  -4.121  0.418E-13  0.418E-13
  -4.111  0.402E-13  0.402E-13
  -4.101  0.386E-13  0.386E-13
  -4.091  0.370E-13  0.370E-13
  -4.081  0.354E-13  0.354E-13
  -4.071  0.339E-13  0.339E-13
  -4.061  0.323E-13  0.323E-13
  -4.051  0.307E-13  0.307E-13
  -4.041  0.291E-13  0.291E-13
  -4.031  0.275E-13  0.275E-13
  -4.021  0.260E-13  0.260E-13
  -4.011  0.244E-13  0.244E-13
  -4.001  0.228E-13  0.228E-13
  -3.991  0.212E-13  0.212E-13
  -3.981  0.197E-13  0.197E-13
  -3.971  0.181E-13  0.181E-13
  -3.961  0.165E-13  0.165E-13
  -3.951  0.149E-13  0.149E-13
  -3.941  0.133E-13  0.133E-13
  -3.931  0.118E-13  0.118E-13
  -3.921  0.102E-13  0.102E-13
  -3.911  0.860E-14  0.860E-14
  -3.901  0.702E-14  0.702E-14
  -3.891  0.685E-14  0.685E-14
  -3.881  0.728E-14  0.728E-14
  -3.871  0.771E-14  0.771E-14
  -3.861  0.815E-14  0.815E-14
  -3.851  0.858E-14  0.858E-14
  -3.841  0.901E-14  0.901E-14
  -3.831  0.945E-14  0.945E-14
  -3.821  0.988E-14  0.988E-14
  -3.811  0.103E-13  0.103E-13
  -3.801  0.107E-13  0.107E-13
  -3.791  0.112E-13  0.112E-13
  -3.781  0.116E-13  0.116E-13
  -3.771  0.120E-13  0.120E-13
  -3.761  0.125E-13  0.125E-13
  -3.751  0.129E-13  0.129E-13
  -3.741  0.133E-13  0.133E-13
  -3.731  0.138E-13  0.138E-13
  -3.721  0.142E-13  0.142E-13
  -3.711  0.146E-13  0.146E-13
  -3.701  0.151E-13  0.151E-13
  -3.691  0.155E-13  0.155E-13
  -3.681  0.159E-13  0.159E-13
  -3.671  0.164E-13  0.164E-13
  -3.661  0.168E-13  0.168E-13
  -3.651  0.172E-13  0.172E-13
  -3.641  0.177E-13  0.177E-13
  -3.631  0.181E-13  0.181E-13
  -3.621  0.177E-13  0.177E-13
  -3.611  0.173E-13  0.173E-13
  -3.601  0.169E-13  0.169E-13
  -3.591  0.165E-13  0.165E-13
  -3.581  0.161E-13  0.161E-13
  -3.571  0.157E-13  0.157E-13
  -3.561  0.153E-13  0.153E-13
  -3.551  0.149E-13  0.149E-13
  -3.541  0.145E-13  0.145E-13
  -3.531  0.141E-13  0.141E-13
  -3.521  0.137E-13  0.137E-13
  -3.511  0.133E-13  0.133E-13
  -3.501  0.129E-13  0.129E-13
  -3.491  0.125E-13  0.125E-13
  -3.481  0.121E-13  0.121E-13
  -3.471  0.117E-13  0.117E-13
  -3.461  0.113E-13  0.113E-13
  -3.451  0.109E-13  0.109E-13
  -3.441  0.105E-13  0.105E-13
  -3.431  0.101E-13  0.101E-13
  -3.421  0.972E-14  0.972E-14
  -3.411  0.932E-14  0.932E-14
  -3.401  0.893E-14  0.893E-14
  -3.391  0.853E-14  0.853E-14
  -3.381  0.813E-14  0.813E-14
  -3.371  0.773E-14  0.773E-14
  -3.361  0.734E-14  0.734E-14
  -3.351  0.694E-14  0.694E-14
  -3.341  0.840E-14  0.840E-14
  -3.331  0.101E-13  0.101E-13
  -3.321  0.118E-13  0.118E-13
  -3.311  0.136E-13  0.136E-13
  -3.301  0.153E-13  0.153E-13
  -3.291  0.170E-13  0.170E-13
  -3.281  0.187E-13  0.187E-13
  -3.271  0.205E-13  0.205E-13
  -3.261  0.222E-13  0.222E-13
  -3.251  0.239E-13  0.239E-13
  -3.241  0.256E-13  0.256E-13
  -3.231  0.274E-13  0.274E-13
  -3.221  0.291E-13  0.291E-13
  -3.211  0.308E-13  0.308E-13
  -3.201  0.325E-13  0.325E-13
  -3.191  0.342E-13  0.342E-13
  -3.181  0.360E-13  0.360E-13
  -3.171  0.377E-13  0.377E-13
  -3.161  0.394E-13  0.394E-13
  -3.151  0.411E-13  0.411E-13
  -3.141  0.429E-13  0.429E-13
  -3.131  0.446E-13  0.446E-13
  -3.121  0.463E-13  0.463E-13
  -3.111  0.480E-13  0.480E-13
  -3.101  0.497E-13  0.497E-13
  -3.091  0.515E-13  0.515E-13
  -3.081  0.532E-13  0.532E-13
  -3.071  0.549E-13  0.549E-13
  -3.061  0.539E-13  0.539E-13
  -3.051  0.533E-13  0.533E-13
  -3.041  0.526E-13  0.526E-13
  -3.031  0.520E-13  0.520E-13
  -3.021  0.513E-13  0.513E-13
  -3.011  0.507E-13  0.507E-13
  -3.001  0.500E-13  0.500E-13
  -2.991  0.494E-13  0.494E-13
  -2.981  0.487E-13  0.487E-13
  -2.971  0.481E-13  0.481E-13
  -2.961  0.474E-13  0.474E-13
  -2.951  0.468E-13  0.468E-13
  -2.941  0.461E-13  0.461E-13
  -2.931  0.454E-13  0.454E-13
  -2.921  0.448E-13  0.448E-13
  -2.911  0.441E-13  0.441E-13
  -2.901  0.435E-13  0.435E-13
  -2.891  0.428E-13  0.428E-13
  -2.881  0.422E-13  0.422E-13
  -2.871  0.415E-13  0.415E-13
  -2.861  0.409E-13  0.409E-13
  -2.851  0.402E-13  0.402E-13
  -2.841  0.396E-13  0.396E-13
  -2.831  0.389E-13  0.389E-13
  -2.821  0.383E-13  0.383E-13
  -2.811  0.376E-13  0.376E-13
  -2.801  0.370E-13  0.370E-13
  -2.791  0.363E-13  0.363E-13
  -2.781  0.357E-13  0.357E-13
  -2.771  0.365E-13  0.365E-13
  -2.761  0.379E-13  0.379E-13
  -2.751  0.394E-13  0.394E-13
  -2.741  0.408E-13  0.408E-13
  -2.731  0.423E-13  0.423E-13
  -2.721  0.437E-13  0.437E-13
  -2.711  0.452E-13  0.452E-13
  -2.701  0.466E-13  0.466E-13
  -2.691  0.481E-13  0.481E-13
  -2.681  0.495E-13  0.495E-13
  -2.671  0.509E-13  0.509E-13
  -2.661  0.524E-13  0.524E-13
  -2.651  0.538E-13  0.538E-13
  -2.641  0.553E-13  0.553E-13
  -2.631  0.567E-13  0.567E-13
  -2.621  0.582E-13  0.582E-13
  -2.611  0.596E-13  0.596E-13
  -2.601  0.611E-13  0.611E-13
  -2.591  0.625E-13  0.625E-13
  -2.581  0.640E-13  0.640E-13
  -2.571  0.654E-13  0.654E-13
  -2.561  0.669E-13  0.669E-13
  -2.551  0.683E-13  0.683E-13
  -2.541  0.697E-13  0.697E-13
  -2.531  0.712E-13  0.712E-13
  -2.521  0.726E-13  0.726E-13
  -2.511  0.741E-13  0.741E-13
  -2.501  0.755E-13  0.755E-13
  -2.491  0.770E-13  0.770E-13
  -2.481  0.756E-13  0.756E-13
  -2.471  0.749E-13  0.749E-13
  -2.461  0.742E-13  0.742E-13
  -2.451  0.736E-13  0.736E-13
  -2.441  0.729E-13  0.729E-13
  -2.431  0.722E-13  0.722E-13
  -2.421  0.716E-13  0.716E-13
  -2.411  0.709E-13  0.709E-13
  -2.401  0.702E-13  0.702E-13
  -2.391  0.696E-13  0.696E-13
  -2.381  0.689E-13  0.689E-13
  -2.371  0.682E-13  0.682E-13
  -2.361  0.676E-13  0.676E-13
  -2.351  0.669E-13  0.669E-13
  -2.341  0.662E-13  0.662E-13
  -2.331  0.656E-13  0.656E-13
  -2.321  0.649E-13  0.649E-13
  -2.311  0.642E-13  0.642E-13
  -2.301  0.636E-13  0.636E-13
  -2.291  0.629E-13  0.629E-13
  -2.281  0.622E-13  0.622E-13
  -2.271  0.615E-13  0.615E-13
  -2.261  0.609E-13  0.609E-13
  -2.251  0.602E-13  0.602E-13
  -2.241  0.595E-13  0.595E-13
  -2.231  0.589E-13  0.589E-13
  -2.221  0.582E-13  0.582E-13
  -2.211  0.575E-13  0.575E-13
  -2.201  0.569E-13  0.569E-13
  -2.191  0.562E-13  0.562E-13
  -2.181  0.553E-13  0.553E-13
  -2.171  0.552E-13  0.552E-13
  -2.161  0.551E-13  0.551E-13
  -2.151  0.551E-13  0.551E-13
  -2.141  0.550E-13  0.550E-13
  -2.131  0.550E-13  0.550E-13
  -2.121  0.549E-13  0.549E-13
  -2.111  0.548E-13  0.548E-13
  -2.101  0.548E-13  0.548E-13
  -2.091  0.547E-13  0.547E-13
  -2.081  0.547E-13  0.547E-13
  -2.071  0.546E-13  0.546E-13
  -2.061  0.545E-13  0.545E-13
  -2.051  0.545E-13  0.545E-13
  -2.041  0.544E-13  0.544E-13
  -2.031  0.544E-13  0.544E-13
  -2.021  0.543E-13  0.543E-13
  -2.011  0.542E-13  0.542E-13
  -2.001  0.542E-13  0.542E-13
  -1.991  0.541E-13  0.541E-13
  -1.981  0.541E-13  0.541E-13
  -1.971  0.540E-13  0.540E-13
  -1.961  0.539E-13  0.539E-13
  -1.951  0.539E-13  0.539E-13
  -1.941  0.538E-13  0.538E-13
  -1.931  0.538E-13  0.538E-13
  -1.921  0.537E-13  0.537E-13
  -1.911  0.536E-13  0.536E-13
  -1.901  0.536E-13  0.536E-13
  -1.891  0.535E-13  0.535E-13
  -1.881  0.525E-13  0.525E-13
  -1.871  0.522E-13  0.522E-13
  -1.861  0.519E-13  0.519E-13
  -1.851  0.516E-13  0.516E-13
  -1.841  0.513E-13  0.513E-13
  -1.831  0.510E-13  0.510E-13
  -1.821  0.507E-13  0.507E-13
  -1.811  0.504E-13  0.504E-13
  -1.801  0.501E-13  0.501E-13
  -1.791  0.498E-13  0.498E-13
  -1.781  0.495E-13  0.495E-13
  -1.771  0.492E-13  0.492E-13
  -1.761  0.489E-13  0.489E-13
  -1.751  0.486E-13  0.486E-13
  -1.741  0.483E-13  0.483E-13
  -1.731  0.480E-13  0.480E-13
  -1.721  0.477E-13  0.477E-13
  -1.711  0.474E-13  0.474E-13
  -1.701  0.471E-13  0.471E-13
  -1.691  0.468E-13  0.468E-13
  -1.681  0.465E-13  0.465E-13
  -1.671  0.462E-13  0.462E-13
  -1.661  0.459E-13  0.459E-13
  -1.651  0.456E-13  0.456E-13
  -1.641  0.453E-13  0.453E-13
  -1.631  0.450E-13  0.450E-13
  -1.621  0.447E-13  0.447E-13
  -1.611  0.444E-13  0.444E-13
  -1.601  0.441E-13  0.441E-13
  -1.591  0.438E-13  0.438E-13
  -1.581  0.428E-13  0.428E-13
  -1.571  0.424E-13  0.424E-13
  -1.561  0.420E-13  0.420E-13
  -1.551  0.415E-13  0.415E-13
  -1.541  0.411E-13  0.411E-13
  -1.531  0.406E-13  0.406E-13
  -1.521  0.402E-13  0.402E-13
  -1.511  0.397E-13  0.397E-13
  -1.501  0.393E-13  0.393E-13
  -1.491  0.389E-13  0.389E-13
  -1.481  0.384E-13  0.384E-13
  -1.471  0.380E-13  0.380E-13
  -1.461  0.375E-13  0.375E-13
  -1.451  0.371E-13  0.371E-13
  -1.441  0.366E-13  0.366E-13
  -1.431  0.362E-13  0.362E-13
  -1.421  0.358E-13  0.358E-13
  -1.411  0.353E-13  0.353E-13
  -1.401  0.349E-13  0.349E-13
  -1.391  0.344E-13  0.344E-13
  -1.381  0.340E-13  0.340E-13
  -1.371  0.335E-13  0.335E-13
  -1.361  0.331E-13  0.331E-13
  -1.351  0.327E-13  0.327E-13
  -1.341  0.322E-13  0.322E-13
  -1.331  0.318E-13  0.318E-13
  -1.321  0.313E-13  0.313E-13
  -1.311  0.309E-13  0.309E-13
  -1.301  0.304E-13  0.304E-13
  -1.291  0.300E-13  0.300E-13
  -1.281  0.296E-13  0.296E-13
  -1.271  0.291E-13  0.291E-13
  -1.261  0.328E-13  0.328E-13
  -1.251  0.371E-13  0.371E-13
  -1.241  0.413E-13  0.413E-13
  -1.231  0.456E-13  0.456E-13
  -1.221  0.498E-13  0.498E-13
  -1.211  0.541E-13  0.541E-13
  -1.201  0.583E-13  0.583E-13
  -1.191  0.626E-13  0.626E-13
  -1.181  0.669E-13  0.669E-13
  -1.171  0.711E-13  0.711E-13
  -1.161  0.754E-13  0.754E-13
  -1.151  0.796E-13  0.796E-13
  -1.141  0.839E-13  0.839E-13
  -1.131  0.881E-13  0.881E-13
  -1.121  0.924E-13  0.924E-13
  -1.111  0.966E-13  0.966E-13
  -1.101  0.101E-12  0.101E-12
  -1.091  0.105E-12  0.105E-12
  -1.081  0.109E-12  0.109E-12
  -1.071  0.114E-12  0.114E-12
  -1.061  0.118E-12  0.118E-12
  -1.051  0.122E-12  0.122E-12
  -1.041  0.126E-12  0.126E-12
  -1.031  0.131E-12  0.131E-12
  -1.021  0.135E-12  0.135E-12
  -1.011  0.139E-12  0.139E-12
  -1.001  0.143E-12  0.143E-12
  -0.991  0.148E-12  0.148E-12
  -0.981  0.152E-12  0.152E-12
  -0.971  0.156E-12  0.156E-12
  -0.961  0.160E-12  0.160E-12
  -0.951  0.159E-12  0.159E-12
  -0.941  0.155E-12  0.155E-12
  -0.931  0.150E-12  0.150E-12
  -0.921  0.145E-12  0.145E-12
  -0.911  0.141E-12  0.141E-12
  -0.901  0.136E-12  0.136E-12
  -0.891  0.132E-12  0.132E-12
  -0.881  0.127E-12  0.127E-12
  -0.871  0.123E-12  0.123E-12
  -0.861  0.118E-12  0.118E-12
  -0.851  0.114E-12  0.114E-12
  -0.841  0.109E-12  0.109E-12
  -0.831  0.105E-12  0.105E-12
  -0.821  0.100E-12  0.100E-12
  -0.811  0.955E-13  0.955E-13
  -0.801  0.910E-13  0.910E-13
  -0.791  0.864E-13  0.864E-13
  -0.781  0.819E-13  0.819E-13
  -0.771  0.774E-13  0.774E-13
  -0.761  0.728E-13  0.728E-13
  -0.751  0.683E-13  0.683E-13
  -0.741  0.637E-13  0.637E-13
  -0.731  0.592E-13  0.592E-13
  -0.721  0.547E-13  0.547E-13
  -0.711  0.501E-13  0.501E-13
  -0.701  0.456E-13  0.456E-13
  -0.691  0.410E-13  0.410E-13
  -0.681  0.365E-13  0.365E-13
  -0.671  0.320E-13  0.320E-13
  -0.661  0.274E-13  0.274E-13
  -0.651  0.229E-13  0.229E-13
  -0.641  0.183E-13  0.183E-13
  -0.631  0.164E-13  0.164E-13
  -0.621  0.177E-13  0.177E-13
  -0.611  0.191E-13  0.191E-13
  -0.601  0.204E-13  0.204E-13
  -0.591  0.217E-13  0.217E-13
  -0.581  0.231E-13  0.231E-13
  -0.571  0.244E-13  0.244E-13
  -0.561  0.258E-13  0.258E-13
  -0.551  0.271E-13  0.271E-13
  -0.541  0.285E-13  0.285E-13
  -0.531  0.298E-13  0.298E-13
  -0.521  0.311E-13  0.311E-13
  -0.511  0.325E-13  0.325E-13
  -0.501  0.338E-13  0.338E-13
  -0.491  0.352E-13  0.352E-13
  -0.481  0.365E-13  0.365E-13
  -0.471  0.379E-13  0.379E-13
  -0.461  0.392E-13  0.392E-13
  -0.451  0.406E-13  0.406E-13
  -0.441  0.419E-13  0.419E-13
  -0.431  0.432E-13  0.432E-13
  -0.421  0.446E-13  0.446E-13
  -0.411  0.459E-13  0.459E-13
  -0.401  0.473E-13  0.473E-13
  -0.391  0.486E-13  0.486E-13
  -0.381  0.500E-13  0.500E-13
  -0.371  0.513E-13  0.513E-13
  -0.361  0.527E-13  0.527E-13
  -0.351  0.540E-13  0.540E-13
  -0.341  0.553E-13  0.553E-13
  -0.331  0.567E-13  0.567E-13
  -0.321  0.580E-13  0.580E-13
  -0.311  0.583E-13  0.583E-13
  -0.301  0.566E-13  0.566E-13
  -0.291  0.548E-13  0.548E-13
  -0.281  0.531E-13  0.531E-13
  -0.271  0.513E-13  0.513E-13
  -0.261  0.496E-13  0.496E-13
  -0.251  0.478E-13  0.478E-13
  -0.241  0.461E-13  0.461E-13
  -0.231  0.443E-13  0.443E-13
  -0.221  0.426E-13  0.426E-13
  -0.211  0.408E-13  0.408E-13
  -0.201  0.391E-13  0.391E-13
  -0.191  0.373E-13  0.373E-13
  -0.181  0.356E-13  0.356E-13
  -0.171  0.338E-13  0.338E-13
  -0.161  0.321E-13  0.321E-13
  -0.151  0.303E-13  0.303E-13
  -0.141  0.286E-13  0.286E-13
  -0.131  0.268E-13  0.268E-13
  -0.121  0.251E-13  0.251E-13
  -0.111  0.233E-13  0.233E-13
  -0.101  0.216E-13  0.216E-13
  -0.091  0.198E-13  0.198E-13
  -0.081  0.181E-13  0.181E-13
  -0.071  0.163E-13  0.163E-13
  -0.061  0.146E-13  0.146E-13
  -0.051  0.128E-13  0.128E-13
  -0.041  0.111E-13  0.111E-13
  -0.031  0.931E-14  0.931E-14
  -0.021  0.756E-14  0.756E-14
  -0.011  0.581E-14  0.581E-14
  -0.001  0.405E-14  0.405E-14
   0.009  0.230E-14  0.230E-14
   0.019  0.942E-14  0.942E-14
   0.029  0.262E-13  0.262E-13
   0.039  0.431E-13  0.431E-13
   0.049  0.599E-13  0.599E-13
   0.059  0.767E-13  0.767E-13
   0.069  0.935E-13  0.935E-13
   0.079  0.110E-12  0.110E-12
   0.089  0.127E-12  0.127E-12
   0.099  0.144E-12  0.144E-12
   0.109  0.161E-12  0.161E-12
   0.119  0.178E-12  0.178E-12
   0.129  0.194E-12  0.194E-12
   0.139  0.211E-12  0.211E-12
   0.149  0.228E-12  0.228E-12
   0.159  0.245E-12  0.245E-12
   0.169  0.262E-12  0.262E-12
   0.179  0.281E-01  0.281E-01
   0.189  0.134E-01  0.134E-01
   0.199  0.846E-02  0.846E-02
   0.209  0.803E-02  0.803E-02
   0.219  0.571E-02  0.571E-02
   0.229  0.541E-02  0.541E-02
   0.239  0.512E-02  0.512E-02
   0.249  0.388E-02  0.388E-02
   0.259  0.367E-02  0.367E-02
   0.269  0.346E-02  0.346E-02
   0.279  0.273E-02  0.273E-02
   0.289  0.258E-02  0.258E-02
   0.299  0.243E-02  0.243E-02
   0.309  0.228E-02  0.228E-02
   0.319  0.185E-02  0.185E-02
   0.329  0.174E-02  0.174E-02
   0.339  0.164E-02  0.164E-02
   0.349  0.153E-02  0.153E-02
   0.359  0.125E-02  0.125E-02
   0.369  0.118E-02  0.118E-02
   0.379  0.111E-02  0.111E-02
   0.389  0.104E-02  0.104E-02
   0.399  0.963E-03  0.963E-03
   0.409  0.891E-03  0.891E-03
   0.419  0.742E-03  0.742E-03
   0.429  0.694E-03  0.694E-03
   0.439  0.646E-03  0.646E-03
   0.449  0.597E-03  0.597E-03
   0.459  0.549E-03  0.549E-03
   0.469  0.501E-03  0.501E-03
   0.479  0.420E-03  0.420E-03
   0.489  0.389E-03  0.389E-03
   0.499  0.359E-03  0.359E-03
   0.509  0.328E-03  0.328E-03
   0.519  0.298E-03  0.298E-03
   0.529  0.267E-03  0.267E-03
   0.539  0.220E-03  0.220E-03
   0.549  0.202E-03  0.202E-03
   0.559  0.184E-03  0.184E-03
   0.569  0.166E-03  0.166E-03
   0.579  0.149E-03  0.149E-03
   0.589  0.131E-03  0.131E-03
   0.599  0.113E-03  0.113E-03
   0.609  0.895E-04  0.895E-04
   0.619  0.808E-04  0.808E-04
   0.629  0.721E-04  0.721E-04
   0.639  0.635E-04  0.635E-04
   0.649  0.548E-04  0.548E-04
   0.659  0.462E-04  0.462E-04
   0.669  0.375E-04  0.375E-04
   0.679  0.288E-04  0.288E-04
   0.689  0.208E-04  0.208E-04
   0.699  0.183E-04  0.183E-04
   0.709  0.157E-04  0.157E-04
   0.719  0.131E-04  0.131E-04
   0.729  0.106E-04  0.106E-04
   0.739  0.803E-05  0.803E-05
   0.749  0.547E-05  0.547E-05
   0.759  0.292E-05  0.292E-05
   0.769  0.360E-06  0.360E-06
   0.779  0.133E-05  0.133E-05
   0.789  0.263E-05  0.263E-05
   0.799  0.394E-05  0.394E-05
   0.809  0.525E-05  0.525E-05
   0.819  0.655E-05  0.655E-05
   0.829  0.786E-05  0.786E-05
   0.839  0.917E-05  0.917E-05
   0.849  0.105E-04  0.105E-04
   0.859  0.118E-04  0.118E-04
   0.869  0.140E-04  0.140E-04
   0.879  0.174E-04  0.174E-04
   0.889  0.209E-04  0.209E-04
   0.899  0.244E-04  0.244E-04
   0.909  0.278E-04  0.278E-04
   0.919  0.313E-04  0.313E-04
   0.929  0.348E-04  0.348E-04
   0.939  0.382E-04  0.382E-04
   0.949  0.417E-04  0.417E-04
   0.959  0.424E-04  0.424E-04
   0.969  0.468E-04  0.468E-04
   0.979  0.511E-04  0.511E-04
   0.989  0.555E-04  0.555E-04
   0.999  0.599E-04  0.599E-04
   1.009  0.643E-04  0.643E-04
   1.019  0.686E-04  0.686E-04
   1.029  0.730E-04  0.730E-04
   1.039  0.774E-04  0.774E-04
   1.049  0.817E-04  0.817E-04
   1.059  0.861E-04  0.861E-04
   1.069  0.855E-04  0.855E-04
   1.079  0.899E-04  0.899E-04
   1.089  0.943E-04  0.943E-04
   1.099  0.987E-04  0.987E-04
   1.109  0.103E-03  0.103E-03
   1.119  0.107E-03  0.107E-03
   1.129  0.112E-03  0.112E-03
   1.139  0.116E-03  0.116E-03
   1.149  0.121E-03  0.121E-03
   1.159  0.125E-03  0.125E-03
   1.169  0.129E-03  0.129E-03
   1.179  0.126E-03  0.126E-03
   1.189  0.130E-03  0.130E-03
   1.199  0.134E-03  0.134E-03
   1.209  0.138E-03  0.138E-03
   1.219  0.142E-03  0.142E-03
   1.229  0.146E-03  0.146E-03
   1.239  0.149E-03  0.149E-03
   1.249  0.153E-03  0.153E-03
   1.259  0.157E-03  0.157E-03
   1.269  0.161E-03  0.161E-03
   1.279  0.165E-03  0.165E-03
   1.289  0.169E-03  0.169E-03
   1.299  0.163E-03  0.163E-03
   1.309  0.166E-03  0.166E-03
   1.319  0.169E-03  0.169E-03
   1.329  0.172E-03  0.172E-03
   1.339  0.175E-03  0.175E-03
   1.349  0.179E-03  0.179E-03
   1.359  0.189E-03  0.189E-03
   1.369  0.199E-03  0.199E-03
   1.379  0.209E-03  0.209E-03
   1.389  0.219E-03  0.219E-03
   1.399  0.229E-03  0.229E-03
   1.409  0.239E-03  0.239E-03
   1.419  0.239E-03  0.239E-03
   1.429  0.249E-03  0.249E-03
   1.439  0.258E-03  0.258E-03
   1.449  0.267E-03  0.267E-03
   1.459  0.276E-03  0.276E-03
   1.469  0.285E-03  0.285E-03
   1.479  0.294E-03  0.294E-03
   1.489  0.303E-03  0.303E-03
   1.499  0.312E-03  0.312E-03
   1.509  0.321E-03  0.321E-03
   1.519  0.330E-03  0.330E-03
   1.529  0.339E-03  0.339E-03
   1.539  0.348E-03  0.348E-03
   1.549  0.650E-09  0.650E-09
   1.559  0.701E-09  0.701E-09
   1.569  0.752E-09  0.752E-09
   1.579  0.803E-09  0.803E-09
   1.589  0.797E-09  0.797E-09
   1.599  0.783E-09  0.783E-09
   1.609  0.769E-09  0.769E-09
   1.619  0.756E-09  0.756E-09
   1.629  0.742E-09  0.742E-09
   1.639  0.728E-09  0.728E-09
   1.649  0.715E-09  0.715E-09
   1.659  0.995E-09  0.995E-09
   1.669  0.821E-09  0.821E-09
   1.679  0.349E-02  0.349E-02
   1.689  0.203E-03  0.203E-03
   1.699  0.202E-03  0.202E-03
   1.709  0.202E-03  0.202E-03
   1.719  0.202E-03  0.202E-03
   1.729  0.202E-03  0.202E-03
   1.739  0.201E-03  0.201E-03
   1.749  0.201E-03  0.201E-03
   1.759  0.201E-03  0.201E-03
   1.769  0.201E-03  0.201E-03
   1.779  0.200E-03  0.200E-03
   1.789  0.200E-03  0.200E-03
   1.799  0.200E-03  0.200E-03
   1.809  0.200E-03  0.200E-03
   1.819  0.199E-03  0.199E-03
   1.829  0.190E-03  0.190E-03
   1.839  0.189E-03  0.189E-03
   1.849  0.188E-03  0.188E-03
   1.859  0.187E-03  0.187E-03
   1.869  0.186E-03  0.186E-03
   1.879  0.185E-03  0.185E-03
   1.889  0.184E-03  0.184E-03
   1.899  0.183E-03  0.183E-03
   1.909  0.182E-03  0.182E-03
   1.919  0.181E-03  0.181E-03
   1.929  0.180E-03  0.180E-03
   1.939  0.179E-03  0.179E-03
   1.949  0.178E-03  0.178E-03
   1.959  0.177E-03  0.177E-03
   1.969  0.169E-03  0.169E-03
   1.979  0.167E-03  0.167E-03
   1.989  0.165E-03  0.165E-03
   1.999  0.163E-03  0.163E-03
   2.009  0.162E-03  0.162E-03
   2.019  0.160E-03  0.160E-03
   2.029  0.158E-03  0.158E-03
   2.039  0.157E-03  0.157E-03
   2.049  0.155E-03  0.155E-03
   2.059  0.153E-03  0.153E-03
   2.069  0.152E-03  0.152E-03
   2.079  0.150E-03  0.150E-03
   2.089  0.148E-03  0.148E-03
   2.099  0.147E-03  0.147E-03
   2.109  0.145E-03  0.145E-03
   2.119  0.143E-03  0.143E-03
   2.129  0.136E-03  0.136E-03
   2.139  0.134E-03  0.134E-03
   2.149  0.132E-03  0.132E-03
   2.159  0.130E-03  0.130E-03
   2.169  0.128E-03  0.128E-03
   2.179  0.126E-03  0.126E-03
   2.189  0.124E-03  0.124E-03
   2.199  0.122E-03  0.122E-03
   2.209  0.120E-03  0.120E-03
   2.219  0.118E-03  0.118E-03
   2.229  0.116E-03  0.116E-03
   2.239  0.113E-03  0.113E-03
   2.249  0.111E-03  0.111E-03
   2.259  0.109E-03  0.109E-03
   2.269  0.107E-03  0.107E-03
   2.279  0.105E-03  0.105E-03
   2.289  0.995E-04  0.995E-04
   2.299  0.974E-04  0.974E-04
   2.309  0.953E-04  0.953E-04
   2.319  0.932E-04  0.932E-04
   2.329  0.911E-04  0.911E-04
   2.339  0.890E-04  0.890E-04
   2.349  0.869E-04  0.869E-04
   2.359  0.848E-04  0.848E-04
   2.369  0.827E-04  0.827E-04
   2.379  0.805E-04  0.805E-04
   2.389  0.784E-04  0.784E-04
   2.399  0.763E-04  0.763E-04
   2.409  0.742E-04  0.742E-04
   2.419  0.721E-04  0.721E-04
   2.429  0.700E-04  0.700E-04
   2.439  0.679E-04  0.679E-04
   2.449  0.636E-04  0.636E-04
   2.459  0.618E-04  0.618E-04
   2.469  0.599E-04  0.599E-04
   2.479  0.581E-04  0.581E-04
   2.489  0.562E-04  0.562E-04
   2.499  0.543E-04  0.543E-04
   2.509  0.525E-04  0.525E-04
   2.519  0.506E-04  0.506E-04
   2.529  0.487E-04  0.487E-04
   2.539  0.469E-04  0.469E-04
   2.549  0.450E-04  0.450E-04
   2.559  0.432E-04  0.432E-04
   2.569  0.413E-04  0.413E-04
   2.579  0.394E-04  0.394E-04
   2.589  0.376E-04  0.376E-04
   2.599  0.357E-04  0.357E-04
   2.609  0.339E-04  0.339E-04
   2.619  0.311E-04  0.311E-04
   2.629  0.297E-04  0.297E-04
   2.639  0.284E-04  0.284E-04
   2.649  0.271E-04  0.271E-04
   2.659  0.258E-04  0.258E-04
   2.669  0.245E-04  0.245E-04
   2.679  0.232E-04  0.232E-04
   2.689  0.219E-04  0.219E-04
   2.699  0.206E-04  0.206E-04
   2.709  0.193E-04  0.193E-04
   2.719  0.180E-04  0.180E-04
   2.729  0.167E-04  0.167E-04
   2.739  0.154E-04  0.154E-04
   2.749  0.141E-04  0.141E-04
   2.759  0.128E-04  0.128E-04
   2.769  0.115E-04  0.115E-04
   2.779  0.102E-04  0.102E-04
   2.789  0.886E-05  0.886E-05
   2.799  0.773E-05  0.773E-05
   2.809  0.730E-05  0.730E-05
   2.819  0.687E-05  0.687E-05
   2.829  0.644E-05  0.644E-05
   2.839  0.601E-05  0.601E-05
   2.849  0.558E-05  0.558E-05
   2.859  0.515E-05  0.515E-05
   2.869  0.472E-05  0.472E-05
   2.879  0.429E-05  0.429E-05
   2.889  0.386E-05  0.386E-05
   2.899  0.343E-05  0.343E-05
   2.909  0.300E-05  0.300E-05
   2.919  0.257E-05  0.257E-05
   2.929  0.214E-05  0.214E-05
   2.939  0.171E-05  0.171E-05
   2.949  0.128E-05  0.128E-05
   2.959  0.849E-06  0.849E-06
   2.969  0.419E-06  0.419E-06
   2.979  0.292E-06  0.292E-06
   2.989  0.107E-05  0.107E-05
   2.999  0.184E-05  0.184E-05
   3.009  0.262E-05  0.262E-05
   3.019  0.339E-05  0.339E-05
   3.029  0.417E-05  0.417E-05
   3.039  0.494E-05  0.494E-05
   3.049  0.572E-05  0.572E-05
   3.059  0.649E-05  0.649E-05
   3.069  0.727E-05  0.727E-05
   3.079  0.804E-05  0.804E-05
   3.089  0.882E-05  0.882E-05
   3.099  0.959E-05  0.959E-05
   3.109  0.104E-04  0.104E-04
   3.119  0.111E-04  0.111E-04
   3.129  0.119E-04  0.119E-04
   3.139  0.127E-04  0.127E-04
   3.149  0.135E-04  0.135E-04
   3.159  0.142E-04  0.142E-04
   3.169  0.154E-04  0.154E-04
   3.179  0.177E-04  0.177E-04
   3.189  0.200E-04  0.200E-04
   3.199  0.224E-04  0.224E-04
   3.209  0.247E-04  0.247E-04
   3.219  0.270E-04  0.270E-04
   3.229  0.293E-04  0.293E-04
   3.239  0.316E-04  0.316E-04
   3.249  0.339E-04  0.339E-04
   3.259  0.362E-04  0.362E-04
   3.269  0.385E-04  0.385E-04
   3.279  0.408E-04  0.408E-04
   3.289  0.432E-04  0.432E-04
   3.299  0.455E-04  0.455E-04
   3.309  0.478E-04  0.478E-04
   3.319  0.501E-04  0.501E-04
   3.329  0.524E-04  0.524E-04
   3.339  0.547E-04  0.547E-04
   3.349  0.570E-04  0.570E-04
   3.359  0.584E-04  0.584E-04
   3.369  0.626E-04  0.626E-04
   3.379  0.668E-04  0.668E-04
   3.389  0.710E-04  0.710E-04
   3.399  0.752E-04  0.752E-04
   3.409  0.794E-04  0.794E-04
   3.419  0.836E-04  0.836E-04
   3.429  0.878E-04  0.878E-04
   3.439  0.920E-04  0.920E-04
   3.449  0.962E-04  0.962E-04
   3.459  0.100E-03  0.100E-03
   3.469  0.105E-03  0.105E-03
   3.479  0.109E-03  0.109E-03
   3.489  0.113E-03  0.113E-03
   3.499  0.117E-03  0.117E-03
   3.509  0.121E-03  0.121E-03
   3.519  0.126E-03  0.126E-03
   3.529  0.130E-03  0.130E-03
   3.539  0.134E-03  0.134E-03
   3.549  0.138E-03  0.138E-03
   3.559  0.140E-03  0.140E-03
   3.569  0.147E-03  0.147E-03
   3.579  0.153E-03  0.153E-03
   3.589  0.160E-03  0.160E-03
   3.599  0.166E-03  0.166E-03
   3.609  0.173E-03  0.173E-03
   3.619  0.179E-03  0.179E-03
   3.629  0.186E-03  0.186E-03
   3.639  0.192E-03  0.192E-03
   3.649  0.199E-03  0.199E-03
   3.659  0.205E-03  0.205E-03
   3.669  0.212E-03  0.212E-03
   3.679  0.218E-03  0.218E-03
   3.689  0.224E-03  0.224E-03
   3.699  0.231E-03  0.231E-03
   3.709  0.237E-03  0.237E-03
   3.719  0.244E-03  0.244E-03
   3.729  0.250E-03  0.250E-03
   3.739  0.257E-03  0.257E-03
   3.749  0.263E-03  0.263E-03
   3.759  0.265E-03  0.265E-03
   3.769  0.274E-03  0.274E-03
   3.779  0.284E-03  0.284E-03
   3.789  0.293E-03  0.293E-03
   3.799  0.302E-03  0.302E-03
   3.809  0.311E-03  0.311E-03
   3.819  0.320E-03  0.320E-03
   3.829  0.329E-03  0.329E-03
   3.839  0.339E-03  0.339E-03
   3.849  0.348E-03  0.348E-03
   3.859  0.357E-03  0.357E-03
   3.869  0.366E-03  0.366E-03
   3.879  0.375E-03  0.375E-03
   3.889  0.384E-03  0.384E-03
   3.899  0.393E-03  0.393E-03
   3.909  0.403E-03  0.403E-03
   3.919  0.412E-03  0.412E-03
   3.929  0.421E-03  0.421E-03
   3.939  0.430E-03  0.430E-03
   3.949  0.439E-03  0.439E-03
   3.959  0.448E-03  0.448E-03
   3.969  0.452E-03  0.452E-03
   3.979  0.464E-03  0.464E-03
   3.989  0.477E-03  0.477E-03
   3.999  0.489E-03  0.489E-03
   4.009  0.502E-03  0.502E-03
   4.019  0.514E-03  0.514E-03
   4.029  0.526E-03  0.526E-03
   4.039  0.539E-03  0.539E-03
   4.049  0.551E-03  0.551E-03
   4.059  0.563E-03  0.563E-03
   4.069  0.576E-03  0.576E-03
   4.079  0.588E-03  0.588E-03
   4.089  0.600E-03  0.600E-03
   4.099  0.613E-03  0.613E-03
   4.109  0.625E-03  0.625E-03
   4.119  0.638E-03  0.638E-03
   4.129  0.650E-03  0.650E-03
   4.139  0.662E-03  0.662E-03
   4.149  0.675E-03  0.675E-03
   4.159  0.687E-03  0.687E-03
   4.169  0.699E-03  0.699E-03
   4.179  0.704E-03  0.704E-03
   4.189  0.720E-03  0.720E-03
   4.199  0.737E-03  0.737E-03
   4.209  0.753E-03  0.753E-03
   4.219  0.769E-03  0.769E-03
   4.229  0.785E-03  0.785E-03
   4.239  0.801E-03  0.801E-03
   4.249  0.818E-03  0.818E-03
   4.259  0.834E-03  0.834E-03
   4.269  0.850E-03  0.850E-03
   4.279  0.866E-03  0.866E-03
   4.289  0.882E-03  0.882E-03
   4.299  0.898E-03  0.898E-03
   4.309  0.915E-03  0.915E-03
   4.319  0.931E-03  0.931E-03
   4.329  0.947E-03  0.947E-03
   4.339  0.963E-03  0.963E-03
   4.349  0.979E-03  0.979E-03
   4.359  0.995E-03  0.995E-03
   4.369  0.101E-02  0.101E-02
   4.379  0.103E-02  0.103E-02
   4.389  0.103E-02  0.103E-02
   4.399  0.105E-02  0.105E-02
   4.409  0.108E-02  0.108E-02
   4.419  0.110E-02  0.110E-02
   4.429  0.112E-02  0.112E-02
   4.439  0.114E-02  0.114E-02
   4.449  0.116E-02  0.116E-02
   4.459  0.118E-02  0.118E-02
   4.469  0.120E-02  0.120E-02
   4.479  0.122E-02  0.122E-02
   4.489  0.124E-02  0.124E-02
   4.499  0.126E-02  0.126E-02
   4.509  0.128E-02  0.128E-02
   4.519  0.130E-02  0.130E-02
   4.529  0.133E-02  0.133E-02
   4.539  0.135E-02  0.135E-02
   4.549  0.137E-02  0.137E-02
   4.559  0.139E-02  0.139E-02
   4.569  0.141E-02  0.141E-02
   4.579  0.143E-02  0.143E-02
   4.589  0.145E-02  0.145E-02
   4.599  0.147E-02  0.147E-02
   4.609  0.149E-02  0.149E-02
   4.619  0.151E-02  0.151E-02
   4.629  0.154E-02  0.154E-02
   4.639  0.156E-02  0.156E-02
   4.649  0.159E-02  0.159E-02
   4.659  0.162E-02  0.162E-02
   4.669  0.164E-02  0.164E-02
   4.679  0.167E-02  0.167E-02
   4.689  0.170E-02  0.170E-02
   4.699  0.172E-02  0.172E-02
   4.709  0.175E-02  0.175E-02
   4.719  0.178E-02  0.178E-02
   4.729  0.180E-02  0.180E-02
   4.739  0.183E-02  0.183E-02
   4.749  0.186E-02  0.186E-02
   4.759  0.188E-02  0.188E-02
   4.769  0.191E-02  0.191E-02
   4.779  0.194E-02  0.194E-02
   4.789  0.196E-02  0.196E-02
   4.799  0.199E-02  0.199E-02
   4.809  0.201E-02  0.201E-02
   4.819  0.204E-02  0.204E-02
   4.829  0.207E-02  0.207E-02
   4.839  0.210E-02  0.210E-02
   4.849  0.214E-02  0.214E-02
   4.859  0.217E-02  0.217E-02
   4.869  0.220E-02  0.220E-02
   4.879  0.224E-02  0.224E-02
   4.889  0.227E-02  0.227E-02
   4.899  0.230E-02  0.230E-02
   4.909  0.234E-02  0.234E-02
   4.919  0.237E-02  0.237E-02
   4.929  0.241E-02  0.241E-02
   4.939  0.244E-02  0.244E-02
   4.949  0.247E-02  0.247E-02
   4.959  0.251E-02  0.251E-02
   4.969  0.254E-02  0.254E-02
   4.979  0.257E-02  0.257E-02
   4.989  0.261E-02  0.261E-02
   4.999  0.264E-02  0.264E-02
   5.009  0.267E-02  0.267E-02
   5.019  0.271E-02  0.271E-02
   5.029  0.274E-02  0.274E-02
   5.039  0.287E-02  0.287E-02
   5.049  0.308E-02  0.308E-02
   5.059  0.329E-02  0.329E-02
   5.069  0.350E-02  0.350E-02
   5.079  0.372E-02  0.372E-02
   5.089  0.393E-02  0.393E-02
   5.099  0.414E-02  0.414E-02
   5.109  0.435E-02  0.435E-02
   5.119  0.457E-02  0.457E-02
   5.129  0.478E-02  0.478E-02
   5.139  0.499E-02  0.499E-02
   5.149  0.521E-02  0.521E-02
   5.159  0.542E-02  0.542E-02
   5.169  0.563E-02  0.563E-02
   5.179  0.584E-02  0.584E-02
   5.189  0.606E-02  0.606E-02
   5.199  0.627E-02  0.627E-02
   5.209  0.648E-02  0.648E-02
   5.219  0.669E-02  0.669E-02
   5.229  0.691E-02  0.691E-02
   5.239  0.712E-02  0.712E-02
   5.249  0.733E-02  0.733E-02
   5.259  0.163E-03  0.163E-03
   5.269  0.391E-03  0.391E-03
   5.279  0.618E-03  0.618E-03
   5.289  0.846E-03  0.846E-03
   5.299  0.107E-02  0.107E-02
   5.309  0.130E-02  0.130E-02
   5.319  0.153E-02  0.153E-02
   5.329  0.176E-02  0.176E-02
   5.339  0.198E-02  0.198E-02
   5.349  0.221E-02  0.221E-02
   5.359  0.244E-02  0.244E-02
   5.369  0.267E-02  0.267E-02
   5.379  0.290E-02  0.290E-02
   5.389  0.312E-02  0.312E-02
   5.399  0.335E-02  0.335E-02
   5.409  0.358E-02  0.358E-02
   5.419  0.381E-02  0.381E-02
   5.429  0.403E-02  0.403E-02
   5.439  0.426E-02  0.426E-02
   5.449  0.449E-02  0.449E-02
   5.459  0.472E-02  0.472E-02
   5.469  0.691E-01  0.691E-01
   5.479  0.119E-01  0.119E-01
   5.489  0.000E+00  0.000E+00
