# E (eV)   ldos(E)   pdos(E)   
 -20.691  0.000E+00  0.000E+00
 -20.681  0.305E+01  0.305E+01
 -20.671  0.203E+01  0.203E+01
 -20.661  0.152E+01  0.152E+01
 -20.651  0.121E+01  0.121E+01
 -20.641  0.120E+01  0.120E+01
 -20.631  0.999E+00  0.999E+00
 -20.621  0.995E+00  0.995E+00
 -20.611  0.990E+00  0.990E+00
 -20.601  0.846E+00  0.846E+00
 -20.591  0.842E+00  0.842E+00
 -20.581  0.838E+00  0.838E+00
 -20.571  0.731E+00  0.731E+00
 -20.561  0.728E+00  0.728E+00
 -20.551  0.725E+00  0.725E+00
 -20.541  0.642E+00  0.642E+00
 -20.531  0.640E+00  0.640E+00
 -20.521  0.637E+00  0.637E+00
 -20.511  0.572E+00  0.572E+00
 -20.501  0.569E+00  0.569E+00
 -20.491  0.567E+00  0.567E+00
 -20.481  0.564E+00  0.564E+00
 -20.471  0.512E+00  0.512E+00
 -20.461  0.510E+00  0.510E+00
 -20.451  0.508E+00  0.508E+00
 -20.441  0.506E+00  0.506E+00
 -20.431  0.463E+00  0.463E+00
 -20.421  0.461E+00  0.461E+00
 -20.411  0.459E+00  0.459E+00
 -20.401  0.457E+00  0.457E+00
 -20.391  0.455E+00  0.455E+00
 -20.381  0.420E+00  0.420E+00
 -20.371  0.418E+00  0.418E+00
 -20.361  0.416E+00  0.416E+00
 -20.351  0.415E+00  0.415E+00
 -20.341  0.413E+00  0.413E+00
 -20.331  0.383E+00  0.383E+00
 -20.321  0.382E+00  0.382E+00
 -20.311  0.380E+00  0.380E+00
 -20.301  0.379E+00  0.379E+00
 -20.291  0.377E+00  0.377E+00
 -20.281  0.376E+00  0.376E+00
 -20.271  0.350E+00  0.350E+00
 -20.261  0.349E+00  0.349E+00
 -20.251  0.348E+00  0.348E+00
 -20.241  0.346E+00  0.346E+00
 -20.231  0.345E+00  0.345E+00
 -20.221  0.323E+00  0.323E+00
 -20.211  0.322E+00  0.322E+00
 -20.201  0.321E+00  0.321E+00
 -20.191  0.320E+00  0.320E+00
 -20.181  0.319E+00  0.319E+00
 -20.171  0.317E+00  0.317E+00
 -20.161  0.299E+00  0.299E+00
 -20.151  0.298E+00  0.298E+00
 -20.141  0.297E+00  0.297E+00
 -20.131  0.296E+00  0.296E+00
 -20.121  0.294E+00  0.294E+00
 -20.111  0.293E+00  0.293E+00
 -20.101  0.292E+00  0.292E+00
 -20.091  0.276E+00  0.276E+00
 -20.081  0.275E+00  0.275E+00
 -20.071  0.274E+00  0.274E+00
 -20.061  0.273E+00  0.273E+00
 -20.051  0.272E+00  0.272E+00
 -20.041  0.271E+00  0.271E+00
 -20.031  0.270E+00  0.270E+00
 -20.021  0.256E+00  0.256E+00
 -20.011  0.255E+00  0.255E+00
 -20.001  0.254E+00  0.254E+00
 -19.991  0.254E+00  0.254E+00
 -19.981  0.253E+00  0.253E+00
 -19.971  0.252E+00  0.252E+00
 -19.961  0.251E+00  0.251E+00
 -19.951  0.238E+00  0.238E+00
 -19.941  0.238E+00  0.238E+00
 -19.931  0.237E+00  0.237E+00
 -19.921  0.236E+00  0.236E+00
 -19.911  0.235E+00  0.235E+00
 -19.901  0.235E+00  0.235E+00
 -19.891  0.234E+00  0.234E+00
 -19.881  0.233E+00  0.233E+00
 -19.871  0.222E+00  0.222E+00
 -19.861  0.221E+00  0.221E+00
 -19.851  0.221E+00  0.221E+00
 -19.841  0.220E+00  0.220E+00
 -19.831  0.219E+00  0.219E+00
 -19.821  0.218E+00  0.218E+00
 -19.811  0.218E+00  0.218E+00
 -19.801  0.217E+00  0.217E+00
 -19.791  0.207E+00  0.207E+00
 -19.781  0.207E+00  0.207E+00
 -19.771  0.206E+00  0.206E+00
 -19.761  0.205E+00  0.205E+00
 -19.751  0.205E+00  0.205E+00
 -19.741  0.204E+00  0.204E+00
 -19.731  0.203E+00  0.203E+00
 -19.721  0.203E+00  0.203E+00
 -19.711  0.194E+00  0.194E+00
 -19.701  0.194E+00  0.194E+00
 -19.691  0.193E+00  0.193E+00
 -19.681  0.193E+00  0.193E+00
 -19.671  0.192E+00  0.192E+00
 -19.661  0.191E+00  0.191E+00
 -19.651  0.191E+00  0.191E+00
 -19.641  0.190E+00  0.190E+00
 -19.631  0.189E+00  0.189E+00
 -19.621  0.182E+00  0.182E+00
 -19.611  0.181E+00  0.181E+00
 -19.601  0.181E+00  0.181E+00
 -19.591  0.180E+00  0.180E+00
 -19.581  0.180E+00  0.180E+00
 -19.571  0.179E+00  0.179E+00
 -19.561  0.178E+00  0.178E+00
 -19.551  0.178E+00  0.178E+00
 -19.541  0.171E+00  0.171E+00
 -19.531  0.171E+00  0.171E+00
 -19.521  0.170E+00  0.170E+00
 -19.511  0.170E+00  0.170E+00
 -19.501  0.169E+00  0.169E+00
 -19.491  0.169E+00  0.169E+00
 -19.481  0.168E+00  0.168E+00
 -19.471  0.168E+00  0.168E+00
 -19.461  0.167E+00  0.167E+00
 -19.451  0.167E+00  0.167E+00
 -19.441  0.161E+00  0.161E+00
 -19.431  0.160E+00  0.160E+00
 -19.421  0.160E+00  0.160E+00
 -19.411  0.159E+00  0.159E+00
 -19.401  0.159E+00  0.159E+00
 -19.391  0.158E+00  0.158E+00
 -19.381  0.158E+00  0.158E+00
 -19.371  0.157E+00  0.157E+00
 -19.361  0.157E+00  0.157E+00
 -19.351  0.151E+00  0.151E+00
 -19.341  0.151E+00  0.151E+00
 -19.331  0.150E+00  0.150E+00
 -19.321  0.150E+00  0.150E+00
 -19.311  0.150E+00  0.150E+00
 -19.301  0.149E+00  0.149E+00
 -19.291  0.149E+00  0.149E+00
 -19.281  0.148E+00  0.148E+00
 -19.271  0.148E+00  0.148E+00
 -19.261  0.147E+00  0.147E+00
 -19.251  0.142E+00  0.142E+00
 -19.241  0.142E+00  0.142E+00
 -19.231  0.142E+00  0.142E+00
 -19.221  0.141E+00  0.141E+00
 -19.211  0.141E+00  0.141E+00
 -19.201  0.140E+00  0.140E+00
 -19.191  0.140E+00  0.140E+00
 -19.181  0.140E+00  0.140E+00
 -19.171  0.139E+00  0.139E+00
 -19.161  0.139E+00  0.139E+00
 -19.151  0.134E+00  0.134E+00
 -19.141  0.134E+00  0.134E+00
 -19.131  0.134E+00  0.134E+00
 -19.121  0.133E+00  0.133E+00
 -19.111  0.133E+00  0.133E+00
 -19.101  0.133E+00  0.133E+00
 -19.091  0.132E+00  0.132E+00
 -19.081  0.132E+00  0.132E+00
 -19.071  0.131E+00  0.131E+00
 -19.061  0.131E+00  0.131E+00
 -19.051  0.131E+00  0.131E+00
 -19.041  0.127E+00  0.127E+00
 -19.031  0.126E+00  0.126E+00
 -19.021  0.126E+00  0.126E+00
 -19.011  0.126E+00  0.126E+00
 -19.001  0.125E+00  0.125E+00
 -18.991  0.125E+00  0.125E+00
 -18.981  0.125E+00  0.125E+00
 -18.971  0.124E+00  0.124E+00
 -18.961  0.124E+00  0.124E+00
 -18.951  0.123E+00  0.123E+00
 -18.941  0.123E+00  0.123E+00
 -18.931  0.120E+00  0.120E+00
 -18.921  0.119E+00  0.119E+00
 -18.911  0.119E+00  0.119E+00
 -18.901  0.119E+00  0.119E+00
 -18.891  0.118E+00  0.118E+00
 -18.881  0.118E+00  0.118E+00
 -18.871  0.118E+00  0.118E+00
 -18.861  0.117E+00  0.117E+00
 -18.851  0.117E+00  0.117E+00
 -18.841  0.117E+00  0.117E+00
 -18.831  0.116E+00  0.116E+00
 -18.821  0.113E+00  0.113E+00
 -18.811  0.113E+00  0.113E+00
 -18.801  0.113E+00  0.113E+00
 -18.791  0.112E+00  0.112E+00
 -18.781  0.112E+00  0.112E+00
 -18.771  0.112E+00  0.112E+00
 -18.761  0.111E+00  0.111E+00
 -18.751  0.111E+00  0.111E+00
 -18.741  0.111E+00  0.111E+00
 -18.731  0.110E+00  0.110E+00
 -18.721  0.110E+00  0.110E+00
 -18.711  0.107E+00  0.107E+00
 -18.701  0.107E+00  0.107E+00
 -18.691  0.107E+00  0.107E+00
 -18.681  0.106E+00  0.106E+00
 -18.671  0.106E+00  0.106E+00
 -18.661  0.106E+00  0.106E+00
 -18.651  0.105E+00  0.105E+00
 -18.641  0.105E+00  0.105E+00
 -18.631  0.105E+00  0.105E+00
 -18.621  0.105E+00  0.105E+00
 -18.611  0.104E+00  0.104E+00
 -18.601  0.104E+00  0.104E+00
 -18.591  0.102E+00  0.102E+00
 -18.581  0.101E+00  0.101E+00
 -18.571  0.101E+00  0.101E+00
 -18.561  0.101E+00  0.101E+00
 -18.551  0.100E+00  0.100E+00
 -18.541  0.100E+00  0.100E+00
 -18.531  0.998E-01  0.998E-01
 -18.521  0.996E-01  0.996E-01
 -18.511  0.993E-01  0.993E-01
 -18.501  0.990E-01  0.990E-01
 -18.491  0.987E-01  0.987E-01
 -18.481  0.965E-01  0.965E-01
 -18.471  0.962E-01  0.962E-01
 -18.461  0.959E-01  0.959E-01
 -18.451  0.957E-01  0.957E-01
 -18.441  0.954E-01  0.954E-01
 -18.431  0.952E-01  0.952E-01
 -18.421  0.949E-01  0.949E-01
 -18.411  0.946E-01  0.946E-01
 -18.401  0.944E-01  0.944E-01
 -18.391  0.941E-01  0.941E-01
 -18.381  0.938E-01  0.938E-01
 -18.371  0.936E-01  0.936E-01
 -18.361  0.916E-01  0.916E-01
 -18.351  0.913E-01  0.913E-01
 -18.341  0.911E-01  0.911E-01
 -18.331  0.908E-01  0.908E-01
 -18.321  0.906E-01  0.906E-01
 -18.311  0.903E-01  0.903E-01
 -18.301  0.901E-01  0.901E-01
 -18.291  0.898E-01  0.898E-01
 -18.281  0.896E-01  0.896E-01
 -18.271  0.893E-01  0.893E-01
 -18.261  0.891E-01  0.891E-01
 -18.251  0.888E-01  0.888E-01
 -18.241  0.886E-01  0.886E-01
 -18.231  0.868E-01  0.868E-01
 -18.221  0.866E-01  0.866E-01
 -18.211  0.863E-01  0.863E-01
 -18.201  0.861E-01  0.861E-01
 -18.191  0.858E-01  0.858E-01
 -18.181  0.856E-01  0.856E-01
 -18.171  0.854E-01  0.854E-01
 -18.161  0.851E-01  0.851E-01
 -18.151  0.849E-01  0.849E-01
 -18.141  0.847E-01  0.847E-01
 -18.131  0.844E-01  0.844E-01
 -18.121  0.842E-01  0.842E-01
 -18.111  0.826E-01  0.826E-01
 -18.101  0.824E-01  0.824E-01
 -18.091  0.821E-01  0.821E-01
 -18.081  0.819E-01  0.819E-01
 -18.071  0.817E-01  0.817E-01
 -18.061  0.815E-01  0.815E-01
 -18.051  0.813E-01  0.813E-01
 -18.041  0.810E-01  0.810E-01
 -18.031  0.808E-01  0.808E-01
 -18.021  0.806E-01  0.806E-01
 -18.011  0.804E-01  0.804E-01
 -18.001  0.802E-01  0.802E-01
 -17.991  0.799E-01  0.799E-01
 -17.981  0.785E-01  0.785E-01
 -17.971  0.783E-01  0.783E-01
 -17.961  0.781E-01  0.781E-01
 -17.951  0.779E-01  0.779E-01
 -17.941  0.777E-01  0.777E-01
 -17.931  0.775E-01  0.775E-01
 -17.921  0.773E-01  0.773E-01
 -17.911  0.771E-01  0.771E-01
 -17.901  0.769E-01  0.769E-01
 -17.891  0.767E-01  0.767E-01
 -17.881  0.765E-01  0.765E-01
 -17.871  0.763E-01  0.763E-01
 -17.861  0.761E-01  0.761E-01
 -17.851  0.781E-01  0.781E-01
 -17.841  0.834E-01  0.834E-01
 -17.831  0.887E-01  0.887E-01
 -17.821  0.940E-01  0.940E-01
 -17.811  0.993E-01  0.993E-01
 -17.801  0.105E+00  0.105E+00
 -17.791  0.110E+00  0.110E+00
 -17.781  0.115E+00  0.115E+00
 -17.771  0.121E+00  0.121E+00
 -17.761  0.126E+00  0.126E+00
 -17.751  0.131E+00  0.131E+00
 -17.741  0.136E+00  0.136E+00
 -17.731  0.142E+00  0.142E+00
 -17.721  0.202E-02  0.202E-02
 -17.711  0.720E-02  0.720E-02
 -17.701  0.124E-01  0.124E-01
 -17.691  0.176E-01  0.176E-01
 -17.681  0.227E-01  0.227E-01
 -17.671  0.279E-01  0.279E-01
 -17.661  0.331E-01  0.331E-01
 -17.651  0.383E-01  0.383E-01
 -17.641  0.435E-01  0.435E-01
 -17.631  0.486E-01  0.486E-01
 -17.621  0.538E-01  0.538E-01
 -17.611  0.590E-01  0.590E-01
 -17.601  0.642E-01  0.642E-01
 -17.591  0.674E-01  0.674E-01
 -17.581  0.672E-01  0.672E-01
 -17.571  0.671E-01  0.671E-01
 -17.561  0.669E-01  0.669E-01
 -17.551  0.667E-01  0.667E-01
 -17.541  0.665E-01  0.665E-01
 -17.531  0.664E-01  0.664E-01
 -17.521  0.662E-01  0.662E-01
 -17.511  0.660E-01  0.660E-01
 -17.501  0.658E-01  0.658E-01
 -17.491  0.656E-01  0.656E-01
 -17.481  0.655E-01  0.655E-01
 -17.471  0.653E-01  0.653E-01
 -17.461  0.651E-01  0.651E-01
 -17.451  0.643E-01  0.643E-01
 -17.441  0.641E-01  0.641E-01
 -17.431  0.639E-01  0.639E-01
 -17.421  0.637E-01  0.637E-01
 -17.411  0.636E-01  0.636E-01
 -17.401  0.634E-01  0.634E-01
 -17.391  0.632E-01  0.632E-01
 -17.381  0.630E-01  0.630E-01
 -17.371  0.628E-01  0.628E-01
 -17.361  0.627E-01  0.627E-01
 -17.351  0.625E-01  0.625E-01
 -17.341  0.623E-01  0.623E-01
 -17.331  0.621E-01  0.621E-01
 -17.321  0.614E-01  0.614E-01
 -17.311  0.612E-01  0.612E-01
 -17.301  0.610E-01  0.610E-01
 -17.291  0.609E-01  0.609E-01
 -17.281  0.607E-01  0.607E-01
 -17.271  0.605E-01  0.605E-01
 -17.261  0.604E-01  0.604E-01
 -17.251  0.602E-01  0.602E-01
 -17.241  0.600E-01  0.600E-01
 -17.231  0.598E-01  0.598E-01
 -17.221  0.597E-01  0.597E-01
 -17.211  0.595E-01  0.595E-01
 -17.201  0.593E-01  0.593E-01
 -17.191  0.591E-01  0.591E-01
 -17.181  0.585E-01  0.585E-01
 -17.171  0.584E-01  0.584E-01
 -17.161  0.582E-01  0.582E-01
 -17.151  0.580E-01  0.580E-01
 -17.141  0.579E-01  0.579E-01
 -17.131  0.577E-01  0.577E-01
 -17.121  0.575E-01  0.575E-01
 -17.111  0.573E-01  0.573E-01
 -17.101  0.572E-01  0.572E-01
 -17.091  0.570E-01  0.570E-01
 -17.081  0.568E-01  0.568E-01
 -17.071  0.567E-01  0.567E-01
 -17.061  0.565E-01  0.565E-01
 -17.051  0.563E-01  0.563E-01
 -17.041  0.558E-01  0.558E-01
 -17.031  0.556E-01  0.556E-01
 -17.021  0.555E-01  0.555E-01
 -17.011  0.553E-01  0.553E-01
 -17.001  0.551E-01  0.551E-01
 -16.991  0.550E-01  0.550E-01
 -16.981  0.548E-01  0.548E-01
 -16.971  0.547E-01  0.547E-01
 -16.961  0.545E-01  0.545E-01
 -16.951  0.543E-01  0.543E-01
 -16.941  0.542E-01  0.542E-01
 -16.931  0.540E-01  0.540E-01
 -16.921  0.538E-01  0.538E-01
 -16.911  0.537E-01  0.537E-01
 -16.901  0.532E-01  0.532E-01
 -16.891  0.531E-01  0.531E-01
 -16.881  0.529E-01  0.529E-01
 -16.871  0.528E-01  0.528E-01
 -16.861  0.526E-01  0.526E-01
 -16.851  0.524E-01  0.524E-01
 -16.841  0.523E-01  0.523E-01
 -16.831  0.521E-01  0.521E-01
 -16.821  0.520E-01  0.520E-01
 -16.811  0.518E-01  0.518E-01
 -16.801  0.516E-01  0.516E-01
 -16.791  0.515E-01  0.515E-01
 -16.781  0.513E-01  0.513E-01
 -16.771  0.512E-01  0.512E-01
 -16.761  0.508E-01  0.508E-01
 -16.751  0.507E-01  0.507E-01
 -16.741  0.505E-01  0.505E-01
 -16.731  0.503E-01  0.503E-01
 -16.721  0.502E-01  0.502E-01
 -16.711  0.500E-01  0.500E-01
 -16.701  0.499E-01  0.499E-01
 -16.691  0.497E-01  0.497E-01
 -16.681  0.496E-01  0.496E-01
 -16.671  0.494E-01  0.494E-01
 -16.661  0.492E-01  0.492E-01
 -16.651  0.491E-01  0.491E-01
 -16.641  0.489E-01  0.489E-01
 -16.631  0.488E-01  0.488E-01
 -16.621  0.485E-01  0.485E-01
 -16.611  0.484E-01  0.484E-01
 -16.601  0.482E-01  0.482E-01
 -16.591  0.480E-01  0.480E-01
 -16.581  0.479E-01  0.479E-01
 -16.571  0.477E-01  0.477E-01
 -16.561  0.476E-01  0.476E-01
 -16.551  0.474E-01  0.474E-01
 -16.541  0.473E-01  0.473E-01
 -16.531  0.471E-01  0.471E-01
 -16.521  0.470E-01  0.470E-01
 -16.511  0.468E-01  0.468E-01
 -16.501  0.467E-01  0.467E-01
 -16.491  0.465E-01  0.465E-01
 -16.481  0.463E-01  0.463E-01
 -16.471  0.462E-01  0.462E-01
 -16.461  0.460E-01  0.460E-01
 -16.451  0.459E-01  0.459E-01
 -16.441  0.457E-01  0.457E-01
 -16.431  0.455E-01  0.455E-01
 -16.421  0.454E-01  0.454E-01
 -16.411  0.452E-01  0.452E-01
 -16.401  0.451E-01  0.451E-01
 -16.391  0.449E-01  0.449E-01
 -16.381  0.448E-01  0.448E-01
 -16.371  0.446E-01  0.446E-01
 -16.361  0.445E-01  0.445E-01
 -16.351  0.443E-01  0.443E-01
 -16.341  0.442E-01  0.442E-01
 -16.331  0.441E-01  0.441E-01
 -16.321  0.439E-01  0.439E-01
 -16.311  0.438E-01  0.438E-01
 -16.301  0.436E-01  0.436E-01
 -16.291  0.435E-01  0.435E-01
 -16.281  0.433E-01  0.433E-01
 -16.271  0.432E-01  0.432E-01
 -16.261  0.430E-01  0.430E-01
 -16.251  0.429E-01  0.429E-01
 -16.241  0.427E-01  0.427E-01
 -16.231  0.426E-01  0.426E-01
 -16.221  0.424E-01  0.424E-01
 -16.211  0.422E-01  0.422E-01
 -16.201  0.422E-01  0.422E-01
 -16.191  0.420E-01  0.420E-01
 -16.181  0.419E-01  0.419E-01
 -16.171  0.417E-01  0.417E-01
 -16.161  0.416E-01  0.416E-01
 -16.151  0.414E-01  0.414E-01
 -16.141  0.413E-01  0.413E-01
 -16.131  0.411E-01  0.411E-01
 -16.121  0.410E-01  0.410E-01
 -16.111  0.408E-01  0.408E-01
 -16.101  0.407E-01  0.407E-01
 -16.091  0.405E-01  0.405E-01
 -16.081  0.404E-01  0.404E-01
 -16.071  0.402E-01  0.402E-01
 -16.061  0.403E-01  0.403E-01
 -16.051  0.401E-01  0.401E-01
 -16.041  0.400E-01  0.400E-01
 -16.031  0.398E-01  0.398E-01
 -16.021  0.397E-01  0.397E-01
 -16.011  0.395E-01  0.395E-01
 -16.001  0.394E-01  0.394E-01
 -15.991  0.392E-01  0.392E-01
 -15.981  0.391E-01  0.391E-01
 -15.971  0.389E-01  0.389E-01
 -15.961  0.388E-01  0.388E-01
 -15.951  0.386E-01  0.386E-01
 -15.941  0.385E-01  0.385E-01
 -15.931  0.383E-01  0.383E-01
 -15.921  0.384E-01  0.384E-01
 -15.911  0.382E-01  0.382E-01
 -15.901  0.381E-01  0.381E-01
 -15.891  0.379E-01  0.379E-01
 -15.881  0.378E-01  0.378E-01
 -15.871  0.376E-01  0.376E-01
 -15.861  0.375E-01  0.375E-01
 -15.851  0.373E-01  0.373E-01
 -15.841  0.372E-01  0.372E-01
 -15.831  0.370E-01  0.370E-01
 -15.821  0.369E-01  0.369E-01
 -15.811  0.367E-01  0.367E-01
 -15.801  0.366E-01  0.366E-01
 -15.791  0.367E-01  0.367E-01
 -15.781  0.366E-01  0.366E-01
 -15.771  0.364E-01  0.364E-01
 -15.761  0.363E-01  0.363E-01
 -15.751  0.361E-01  0.361E-01
 -15.741  0.360E-01  0.360E-01
 -15.731  0.358E-01  0.358E-01
 -15.721  0.357E-01  0.357E-01
 -15.711  0.355E-01  0.355E-01
 -15.701  0.354E-01  0.354E-01
 -15.691  0.352E-01  0.352E-01
 -15.681  0.351E-01  0.351E-01
 -15.671  0.349E-01  0.349E-01
 -15.661  0.348E-01  0.348E-01
 -15.651  0.350E-01  0.350E-01
 -15.641  0.348E-01  0.348E-01
 -15.631  0.347E-01  0.347E-01
 -15.621  0.345E-01  0.345E-01
 -15.611  0.344E-01  0.344E-01
 -15.601  0.342E-01  0.342E-01
 -15.591  0.340E-01  0.340E-01
 -15.581  0.339E-01  0.339E-01
 -15.571  0.337E-01  0.337E-01
 -15.561  0.336E-01  0.336E-01
 -15.551  0.334E-01  0.334E-01
 -15.541  0.333E-01  0.333E-01
 -15.531  0.331E-01  0.331E-01
 -15.521  0.330E-01  0.330E-01
 -15.511  0.332E-01  0.332E-01
 -15.501  0.331E-01  0.331E-01
 -15.491  0.329E-01  0.329E-01
 -15.481  0.328E-01  0.328E-01
 -15.471  0.326E-01  0.326E-01
 -15.461  0.325E-01  0.325E-01
 -15.451  0.323E-01  0.323E-01
 -15.441  0.322E-01  0.322E-01
 -15.431  0.320E-01  0.320E-01
 -15.421  0.318E-01  0.318E-01
 -15.411  0.317E-01  0.317E-01
 -15.401  0.315E-01  0.315E-01
 -15.391  0.314E-01  0.314E-01
 -15.381  0.317E-01  0.317E-01
 -15.371  0.315E-01  0.315E-01
 -15.361  0.314E-01  0.314E-01
 -15.351  0.312E-01  0.312E-01
 -15.341  0.311E-01  0.311E-01
 -15.331  0.309E-01  0.309E-01
 -15.321  0.307E-01  0.307E-01
 -15.311  0.306E-01  0.306E-01
 -15.301  0.304E-01  0.304E-01
 -15.291  0.303E-01  0.303E-01
 -15.281  0.301E-01  0.301E-01
 -15.271  0.300E-01  0.300E-01
 -15.261  0.298E-01  0.298E-01
 -15.251  0.302E-01  0.302E-01
 -15.241  0.300E-01  0.300E-01
 -15.231  0.298E-01  0.298E-01
 -15.221  0.297E-01  0.297E-01
 -15.211  0.295E-01  0.295E-01
 -15.201  0.293E-01  0.293E-01
 -15.191  0.292E-01  0.292E-01
 -15.181  0.290E-01  0.290E-01
 -15.171  0.289E-01  0.289E-01
 -15.161  0.287E-01  0.287E-01
 -15.151  0.285E-01  0.285E-01
 -15.141  0.284E-01  0.284E-01
 -15.131  0.282E-01  0.282E-01
 -15.121  0.281E-01  0.281E-01
 -15.111  0.285E-01  0.285E-01
 -15.101  0.283E-01  0.283E-01
 -15.091  0.281E-01  0.281E-01
 -15.081  0.280E-01  0.280E-01
 -15.071  0.278E-01  0.278E-01
 -15.061  0.276E-01  0.276E-01
 -15.051  0.275E-01  0.275E-01
 -15.041  0.273E-01  0.273E-01
 -15.031  0.271E-01  0.271E-01
 -15.021  0.270E-01  0.270E-01
 -15.011  0.268E-01  0.268E-01
 -15.001  0.266E-01  0.266E-01
 -14.991  0.271E-01  0.271E-01
 -14.981  0.269E-01  0.269E-01
 -14.971  0.268E-01  0.268E-01
 -14.961  0.266E-01  0.266E-01
 -14.951  0.264E-01  0.264E-01
 -14.941  0.262E-01  0.262E-01
 -14.931  0.261E-01  0.261E-01
 -14.921  0.259E-01  0.259E-01
 -14.911  0.257E-01  0.257E-01
 -14.901  0.256E-01  0.256E-01
 -14.891  0.254E-01  0.254E-01
 -14.881  0.252E-01  0.252E-01
 -14.871  0.251E-01  0.251E-01
 -14.861  0.256E-01  0.256E-01
 -14.851  0.254E-01  0.254E-01
 -14.841  0.252E-01  0.252E-01
 -14.831  0.250E-01  0.250E-01
 -14.821  0.249E-01  0.249E-01
 -14.811  0.247E-01  0.247E-01
 -14.801  0.245E-01  0.245E-01
 -14.791  0.243E-01  0.243E-01
 -14.781  0.241E-01  0.241E-01
 -14.771  0.240E-01  0.240E-01
 -14.761  0.238E-01  0.238E-01
 -14.751  0.236E-01  0.236E-01
 -14.741  0.242E-01  0.242E-01
 -14.731  0.240E-01  0.240E-01
 -14.721  0.238E-01  0.238E-01
 -14.711  0.236E-01  0.236E-01
 -14.701  0.234E-01  0.234E-01
 -14.691  0.232E-01  0.232E-01
 -14.681  0.231E-01  0.231E-01
 -14.671  0.229E-01  0.229E-01
 -14.661  0.227E-01  0.227E-01
 -14.651  0.225E-01  0.225E-01
 -14.641  0.223E-01  0.223E-01
 -14.631  0.222E-01  0.222E-01
 -14.621  0.227E-01  0.227E-01
 -14.611  0.225E-01  0.225E-01
 -14.601  0.223E-01  0.223E-01
 -14.591  0.221E-01  0.221E-01
 -14.581  0.220E-01  0.220E-01
 -14.571  0.218E-01  0.218E-01
 -14.561  0.216E-01  0.216E-01
 -14.551  0.214E-01  0.214E-01
 -14.541  0.212E-01  0.212E-01
 -14.531  0.210E-01  0.210E-01
 -14.521  0.208E-01  0.208E-01
 -14.511  0.214E-01  0.214E-01
 -14.501  0.212E-01  0.212E-01
 -14.491  0.210E-01  0.210E-01
 -14.481  0.208E-01  0.208E-01
 -14.471  0.206E-01  0.206E-01
 -14.461  0.204E-01  0.204E-01
 -14.451  0.202E-01  0.202E-01
 -14.441  0.200E-01  0.200E-01
 -14.431  0.198E-01  0.198E-01
 -14.421  0.196E-01  0.196E-01
 -14.411  0.194E-01  0.194E-01
 -14.401  0.201E-01  0.201E-01
 -14.391  0.199E-01  0.199E-01
 -14.381  0.197E-01  0.197E-01
 -14.371  0.194E-01  0.194E-01
 -14.361  0.192E-01  0.192E-01
 -14.351  0.190E-01  0.190E-01
 -14.341  0.188E-01  0.188E-01
 -14.331  0.186E-01  0.186E-01
 -14.321  0.184E-01  0.184E-01
 -14.311  0.182E-01  0.182E-01
 -14.301  0.180E-01  0.180E-01
 -14.291  0.186E-01  0.186E-01
 -14.281  0.184E-01  0.184E-01
 -14.271  0.182E-01  0.182E-01
 -14.261  0.180E-01  0.180E-01
 -14.251  0.177E-01  0.177E-01
 -14.241  0.175E-01  0.175E-01
 -14.231  0.173E-01  0.173E-01
 -14.221  0.171E-01  0.171E-01
 -14.211  0.169E-01  0.169E-01
 -14.201  0.166E-01  0.166E-01
 -14.191  0.173E-01  0.173E-01
 -14.181  0.171E-01  0.171E-01
 -14.171  0.169E-01  0.169E-01
 -14.161  0.166E-01  0.166E-01
 -14.151  0.164E-01  0.164E-01
 -14.141  0.161E-01  0.161E-01
 -14.131  0.159E-01  0.159E-01
 -14.121  0.157E-01  0.157E-01
 -14.111  0.154E-01  0.154E-01
 -14.101  0.161E-01  0.161E-01
 -14.091  0.159E-01  0.159E-01
 -14.081  0.156E-01  0.156E-01
 -14.071  0.154E-01  0.154E-01
 -14.061  0.151E-01  0.151E-01
 -14.051  0.149E-01  0.149E-01
 -14.041  0.146E-01  0.146E-01
 -14.031  0.144E-01  0.144E-01
 -14.021  0.141E-01  0.141E-01
 -14.011  0.148E-01  0.148E-01
 -14.001  0.146E-01  0.146E-01
 -13.991  0.143E-01  0.143E-01
 -13.981  0.140E-01  0.140E-01
 -13.971  0.137E-01  0.137E-01
 -13.961  0.135E-01  0.135E-01
 -13.951  0.132E-01  0.132E-01
 -13.941  0.129E-01  0.129E-01
 -13.931  0.137E-01  0.137E-01
 -13.921  0.134E-01  0.134E-01
 -13.911  0.131E-01  0.131E-01
 -13.901  0.128E-01  0.128E-01
 -13.891  0.125E-01  0.125E-01
 -13.881  0.122E-01  0.122E-01
 -13.871  0.119E-01  0.119E-01
 -13.861  0.115E-01  0.115E-01
 -13.851  0.123E-01  0.123E-01
 -13.841  0.120E-01  0.120E-01
 -13.831  0.116E-01  0.116E-01
 -13.821  0.113E-01  0.113E-01
 -13.811  0.110E-01  0.110E-01
 -13.801  0.106E-01  0.106E-01
 -13.791  0.103E-01  0.103E-01
 -13.781  0.111E-01  0.111E-01
 -13.771  0.107E-01  0.107E-01
 -13.761  0.103E-01  0.103E-01
 -13.751  0.993E-02  0.993E-02
 -13.741  0.956E-02  0.956E-02
 -13.731  0.918E-02  0.918E-02
 -13.721  0.881E-02  0.881E-02
 -13.711  0.952E-02  0.952E-02
 -13.701  0.909E-02  0.909E-02
 -13.691  0.866E-02  0.866E-02
 -13.681  0.823E-02  0.823E-02
 -13.671  0.781E-02  0.781E-02
 -13.661  0.852E-02  0.852E-02
 -13.651  0.802E-02  0.802E-02
 -13.641  0.752E-02  0.752E-02
 -13.631  0.703E-02  0.703E-02
 -13.621  0.653E-02  0.653E-02
 -13.611  0.717E-02  0.717E-02
 -13.601  0.657E-02  0.657E-02
 -13.591  0.598E-02  0.598E-02
 -13.581  0.538E-02  0.538E-02
 -13.571  0.594E-02  0.594E-02
 -13.561  0.520E-02  0.520E-02
 -13.551  0.445E-02  0.445E-02
 -13.541  0.492E-02  0.492E-02
 -13.531  0.393E-02  0.393E-02
 -13.521  0.294E-02  0.294E-02
 -13.511  0.291E-02  0.291E-02
 -13.501  0.143E-02  0.143E-02
 -13.491  0.000E+00  0.000E+00
 -13.481  0.000E+00  0.000E+00
 -13.471  0.000E+00  0.000E+00
 -13.461  0.000E+00  0.000E+00
 -13.451  0.000E+00  0.000E+00
 -13.441  0.000E+00  0.000E+00
 -13.431  0.000E+00  0.000E+00
 -13.421  0.000E+00  0.000E+00
 -13.411  0.000E+00  0.000E+00
 -13.401  0.000E+00  0.000E+00
 -13.391  0.000E+00  0.000E+00
 -13.381  0.000E+00  0.000E+00
 -13.371  0.000E+00  0.000E+00
 -13.361  0.000E+00  0.000E+00
 -13.351  0.000E+00  0.000E+00
 -13.341  0.000E+00  0.000E+00
 -13.331  0.000E+00  0.000E+00
 -13.321  0.000E+00  0.000E+00
 -13.311  0.000E+00  0.000E+00
 -13.301  0.000E+00  0.000E+00
 -13.291  0.000E+00  0.000E+00
 -13.281  0.000E+00  0.000E+00
 -13.271  0.000E+00  0.000E+00
 -13.261  0.000E+00  0.000E+00
 -13.251  0.000E+00  0.000E+00
 -13.241  0.000E+00  0.000E+00
 -13.231  0.000E+00  0.000E+00
 -13.221  0.000E+00  0.000E+00
 -13.211  0.000E+00  0.000E+00
 -13.201  0.000E+00  0.000E+00
 -13.191  0.000E+00  0.000E+00
 -13.181  0.000E+00  0.000E+00
 -13.171  0.000E+00  0.000E+00
 -13.161  0.000E+00  0.000E+00
 -13.151  0.000E+00  0.000E+00
 -13.141  0.000E+00  0.000E+00
 -13.131  0.000E+00  0.000E+00
 -13.121  0.000E+00  0.000E+00
 -13.111  0.000E+00  0.000E+00
 -13.101  0.000E+00  0.000E+00
 -13.091  0.000E+00  0.000E+00
 -13.081  0.000E+00  0.000E+00
 -13.071  0.000E+00  0.000E+00
 -13.061  0.000E+00  0.000E+00
 -13.051  0.000E+00  0.000E+00
 -13.041  0.000E+00  0.000E+00
 -13.031  0.000E+00  0.000E+00
 -13.021  0.000E+00  0.000E+00
 -13.011  0.000E+00  0.000E+00
 -13.001  0.000E+00  0.000E+00
 -12.991  0.000E+00  0.000E+00
 -12.981  0.000E+00  0.000E+00
 -12.971  0.000E+00  0.000E+00
 -12.961  0.000E+00  0.000E+00
 -12.951  0.000E+00  0.000E+00
 -12.941  0.000E+00  0.000E+00
 -12.931  0.000E+00  0.000E+00
 -12.921  0.000E+00  0.000E+00
 -12.911  0.000E+00  0.000E+00
 -12.901  0.000E+00  0.000E+00
 -12.891  0.000E+00  0.000E+00
 -12.881  0.000E+00  0.000E+00
 -12.871  0.000E+00  0.000E+00
 -12.861  0.000E+00  0.000E+00
 -12.851  0.000E+00  0.000E+00
 -12.841  0.000E+00  0.000E+00
 -12.831  0.000E+00  0.000E+00
 -12.821  0.000E+00  0.000E+00
 -12.811  0.000E+00  0.000E+00
 -12.801  0.000E+00  0.000E+00
 -12.791  0.000E+00  0.000E+00
 -12.781  0.000E+00  0.000E+00
 -12.771  0.000E+00  0.000E+00
 -12.761  0.000E+00  0.000E+00
 -12.751  0.000E+00  0.000E+00
 -12.741  0.000E+00  0.000E+00
 -12.731  0.000E+00  0.000E+00
 -12.721  0.000E+00  0.000E+00
 -12.711  0.000E+00  0.000E+00
 -12.701  0.000E+00  0.000E+00
 -12.691  0.000E+00  0.000E+00
 -12.681  0.000E+00  0.000E+00
 -12.671  0.000E+00  0.000E+00
 -12.661  0.000E+00  0.000E+00
 -12.651  0.000E+00  0.000E+00
 -12.641  0.000E+00  0.000E+00
 -12.631  0.000E+00  0.000E+00
 -12.621  0.000E+00  0.000E+00
 -12.611  0.000E+00  0.000E+00
 -12.601  0.000E+00  0.000E+00
 -12.591  0.000E+00  0.000E+00
 -12.581  0.000E+00  0.000E+00
 -12.571  0.000E+00  0.000E+00
 -12.561  0.000E+00  0.000E+00
 -12.551  0.000E+00  0.000E+00
 -12.541  0.000E+00  0.000E+00
 -12.531  0.000E+00  0.000E+00
 -12.521  0.000E+00  0.000E+00
 -12.511  0.000E+00  0.000E+00
 -12.501  0.000E+00  0.000E+00
 -12.491  0.000E+00  0.000E+00
 -12.481  0.000E+00  0.000E+00
 -12.471  0.000E+00  0.000E+00
 -12.461  0.000E+00  0.000E+00
 -12.451  0.000E+00  0.000E+00
 -12.441  0.000E+00  0.000E+00
 -12.431  0.000E+00  0.000E+00
 -12.421  0.000E+00  0.000E+00
 -12.411  0.000E+00  0.000E+00
 -12.401  0.000E+00  0.000E+00
 -12.391  0.000E+00  0.000E+00
 -12.381  0.000E+00  0.000E+00
 -12.371  0.000E+00  0.000E+00
 -12.361  0.000E+00  0.000E+00
 -12.351  0.000E+00  0.000E+00
 -12.341  0.000E+00  0.000E+00
 -12.331  0.000E+00  0.000E+00
 -12.321  0.000E+00  0.000E+00
 -12.311  0.000E+00  0.000E+00
 -12.301  0.000E+00  0.000E+00
 -12.291  0.000E+00  0.000E+00
 -12.281  0.000E+00  0.000E+00
 -12.271  0.000E+00  0.000E+00
 -12.261  0.000E+00  0.000E+00
 -12.251  0.000E+00  0.000E+00
 -12.241  0.000E+00  0.000E+00
 -12.231  0.000E+00  0.000E+00
 -12.221  0.000E+00  0.000E+00
 -12.211  0.000E+00  0.000E+00
 -12.201  0.000E+00  0.000E+00
 -12.191  0.000E+00  0.000E+00
 -12.181  0.000E+00  0.000E+00
 -12.171  0.000E+00  0.000E+00
 -12.161  0.000E+00  0.000E+00
 -12.151  0.000E+00  0.000E+00
 -12.141  0.000E+00  0.000E+00
 -12.131  0.000E+00  0.000E+00
 -12.121  0.000E+00  0.000E+00
 -12.111  0.000E+00  0.000E+00
 -12.101  0.000E+00  0.000E+00
 -12.091  0.000E+00  0.000E+00
 -12.081  0.000E+00  0.000E+00
 -12.071  0.000E+00  0.000E+00
 -12.061  0.000E+00  0.000E+00
 -12.051  0.000E+00  0.000E+00
 -12.041  0.000E+00  0.000E+00
 -12.031  0.000E+00  0.000E+00
 -12.021  0.000E+00  0.000E+00
 -12.011  0.000E+00  0.000E+00
 -12.001  0.000E+00  0.000E+00
 -11.991  0.000E+00  0.000E+00
 -11.981  0.000E+00  0.000E+00
 -11.971  0.000E+00  0.000E+00
 -11.961  0.000E+00  0.000E+00
 -11.951  0.000E+00  0.000E+00
 -11.941  0.000E+00  0.000E+00
 -11.931  0.000E+00  0.000E+00
 -11.921  0.000E+00  0.000E+00
 -11.911  0.000E+00  0.000E+00
 -11.901  0.000E+00  0.000E+00
 -11.891  0.000E+00  0.000E+00
 -11.881  0.000E+00  0.000E+00
 -11.871  0.000E+00  0.000E+00
 -11.861  0.000E+00  0.000E+00
 -11.851  0.000E+00  0.000E+00
 -11.841  0.000E+00  0.000E+00
 -11.831  0.000E+00  0.000E+00
 -11.821  0.000E+00  0.000E+00
 -11.811  0.000E+00  0.000E+00
 -11.801  0.000E+00  0.000E+00
 -11.791  0.000E+00  0.000E+00
 -11.781  0.000E+00  0.000E+00
 -11.771  0.000E+00  0.000E+00
 -11.761  0.000E+00  0.000E+00
 -11.751  0.000E+00  0.000E+00
 -11.741  0.000E+00  0.000E+00
 -11.731  0.000E+00  0.000E+00
 -11.721  0.000E+00  0.000E+00
 -11.711  0.000E+00  0.000E+00
 -11.701  0.000E+00  0.000E+00
 -11.691  0.000E+00  0.000E+00
 -11.681  0.000E+00  0.000E+00
 -11.671  0.000E+00  0.000E+00
 -11.661  0.000E+00  0.000E+00
 -11.651  0.000E+00  0.000E+00
 -11.641  0.000E+00  0.000E+00
 -11.631  0.000E+00  0.000E+00
 -11.621  0.000E+00  0.000E+00
 -11.611  0.000E+00  0.000E+00
 -11.601  0.000E+00  0.000E+00
 -11.591  0.000E+00  0.000E+00
 -11.581  0.000E+00  0.000E+00
 -11.571  0.000E+00  0.000E+00
 -11.561  0.000E+00  0.000E+00
 -11.551  0.000E+00  0.000E+00
 -11.541  0.000E+00  0.000E+00
 -11.531  0.000E+00  0.000E+00
 -11.521  0.000E+00  0.000E+00
 -11.511  0.000E+00  0.000E+00
 -11.501  0.000E+00  0.000E+00
 -11.491  0.000E+00  0.000E+00
 -11.481  0.000E+00  0.000E+00
 -11.471  0.000E+00  0.000E+00
 -11.461  0.000E+00  0.000E+00
 -11.451  0.000E+00  0.000E+00
 -11.441  0.000E+00  0.000E+00
 -11.431  0.000E+00  0.000E+00
 -11.421  0.000E+00  0.000E+00
 -11.411  0.000E+00  0.000E+00
 -11.401  0.000E+00  0.000E+00
 -11.391  0.000E+00  0.000E+00
 -11.381  0.000E+00  0.000E+00
 -11.371  0.000E+00  0.000E+00
 -11.361  0.000E+00  0.000E+00
 -11.351  0.000E+00  0.000E+00
 -11.341  0.000E+00  0.000E+00
 -11.331  0.000E+00  0.000E+00
 -11.321  0.000E+00  0.000E+00
 -11.311  0.000E+00  0.000E+00
 -11.301  0.000E+00  0.000E+00
 -11.291  0.000E+00  0.000E+00
 -11.281  0.000E+00  0.000E+00
 -11.271  0.000E+00  0.000E+00
 -11.261  0.000E+00  0.000E+00
 -11.251  0.000E+00  0.000E+00
 -11.241  0.000E+00  0.000E+00
 -11.231  0.000E+00  0.000E+00
 -11.221  0.000E+00  0.000E+00
 -11.211  0.000E+00  0.000E+00
 -11.201  0.000E+00  0.000E+00
 -11.191  0.000E+00  0.000E+00
 -11.181  0.000E+00  0.000E+00
 -11.171  0.000E+00  0.000E+00
 -11.161  0.000E+00  0.000E+00
 -11.151  0.000E+00  0.000E+00
 -11.141  0.000E+00  0.000E+00
 -11.131  0.000E+00  0.000E+00
 -11.121  0.000E+00  0.000E+00
 -11.111  0.000E+00  0.000E+00
 -11.101  0.000E+00  0.000E+00
 -11.091  0.000E+00  0.000E+00
 -11.081  0.000E+00  0.000E+00
 -11.071  0.000E+00  0.000E+00
 -11.061  0.000E+00  0.000E+00
 -11.051  0.000E+00  0.000E+00
 -11.041  0.000E+00  0.000E+00
 -11.031  0.000E+00  0.000E+00
 -11.021  0.000E+00  0.000E+00
 -11.011  0.000E+00  0.000E+00
 -11.001  0.000E+00  0.000E+00
 -10.991  0.000E+00  0.000E+00
 -10.981  0.000E+00  0.000E+00
 -10.971  0.000E+00  0.000E+00
 -10.961  0.000E+00  0.000E+00
 -10.951  0.000E+00  0.000E+00
 -10.941  0.000E+00  0.000E+00
 -10.931  0.000E+00  0.000E+00
 -10.921  0.000E+00  0.000E+00
 -10.911  0.000E+00  0.000E+00
 -10.901  0.000E+00  0.000E+00
 -10.891  0.000E+00  0.000E+00
 -10.881  0.000E+00  0.000E+00
 -10.871  0.000E+00  0.000E+00
 -10.861  0.000E+00  0.000E+00
 -10.851  0.000E+00  0.000E+00
 -10.841  0.000E+00  0.000E+00
 -10.831  0.000E+00  0.000E+00
 -10.821  0.000E+00  0.000E+00
 -10.811  0.000E+00  0.000E+00
 -10.801  0.000E+00  0.000E+00
 -10.791  0.000E+00  0.000E+00
 -10.781  0.000E+00  0.000E+00
 -10.771  0.000E+00  0.000E+00
 -10.761  0.000E+00  0.000E+00
 -10.751  0.000E+00  0.000E+00
 -10.741  0.000E+00  0.000E+00
 -10.731  0.000E+00  0.000E+00
 -10.721  0.000E+00  0.000E+00
 -10.711  0.000E+00  0.000E+00
 -10.701  0.000E+00  0.000E+00
 -10.691  0.000E+00  0.000E+00
 -10.681  0.000E+00  0.000E+00
 -10.671  0.000E+00  0.000E+00
 -10.661  0.000E+00  0.000E+00
 -10.651  0.000E+00  0.000E+00
 -10.641  0.000E+00  0.000E+00
 -10.631  0.000E+00  0.000E+00
 -10.621  0.000E+00  0.000E+00
 -10.611  0.000E+00  0.000E+00
 -10.601  0.000E+00  0.000E+00
 -10.591  0.000E+00  0.000E+00
 -10.581  0.000E+00  0.000E+00
 -10.571  0.000E+00  0.000E+00
 -10.561  0.000E+00  0.000E+00
 -10.551  0.000E+00  0.000E+00
 -10.541  0.000E+00  0.000E+00
 -10.531  0.000E+00  0.000E+00
 -10.521  0.000E+00  0.000E+00
 -10.511  0.000E+00  0.000E+00
 -10.501  0.000E+00  0.000E+00
 -10.491  0.000E+00  0.000E+00
 -10.481  0.000E+00  0.000E+00
 -10.471  0.000E+00  0.000E+00
 -10.461  0.000E+00  0.000E+00
 -10.451  0.000E+00  0.000E+00
 -10.441  0.000E+00  0.000E+00
 -10.431  0.000E+00  0.000E+00
 -10.421  0.000E+00  0.000E+00
 -10.411  0.000E+00  0.000E+00
 -10.401  0.000E+00  0.000E+00
 -10.391  0.000E+00  0.000E+00
 -10.381  0.000E+00  0.000E+00
 -10.371  0.000E+00  0.000E+00
 -10.361  0.000E+00  0.000E+00
 -10.351  0.000E+00  0.000E+00
 -10.341  0.000E+00  0.000E+00
 -10.331  0.000E+00  0.000E+00
 -10.321  0.000E+00  0.000E+00
 -10.311  0.000E+00  0.000E+00
 -10.301  0.000E+00  0.000E+00
 -10.291  0.000E+00  0.000E+00
 -10.281  0.000E+00  0.000E+00
 -10.271  0.000E+00  0.000E+00
 -10.261  0.000E+00  0.000E+00
 -10.251  0.000E+00  0.000E+00
 -10.241  0.000E+00  0.000E+00
 -10.231  0.000E+00  0.000E+00
 -10.221  0.000E+00  0.000E+00
 -10.211  0.000E+00  0.000E+00
 -10.201  0.000E+00  0.000E+00
 -10.191  0.000E+00  0.000E+00
 -10.181  0.000E+00  0.000E+00
 -10.171  0.000E+00  0.000E+00
 -10.161  0.000E+00  0.000E+00
 -10.151  0.000E+00  0.000E+00
 -10.141  0.000E+00  0.000E+00
 -10.131  0.000E+00  0.000E+00
 -10.121  0.000E+00  0.000E+00
 -10.111  0.000E+00  0.000E+00
 -10.101  0.000E+00  0.000E+00
 -10.091  0.000E+00  0.000E+00
 -10.081  0.000E+00  0.000E+00
 -10.071  0.000E+00  0.000E+00
 -10.061  0.000E+00  0.000E+00
 -10.051  0.000E+00  0.000E+00
 -10.041  0.000E+00  0.000E+00
 -10.031  0.000E+00  0.000E+00
 -10.021  0.000E+00  0.000E+00
 -10.011  0.000E+00  0.000E+00
 -10.001  0.000E+00  0.000E+00
  -9.991  0.000E+00  0.000E+00
  -9.981  0.000E+00  0.000E+00
  -9.971  0.000E+00  0.000E+00
  -9.961  0.000E+00  0.000E+00
  -9.951  0.000E+00  0.000E+00
  -9.941  0.000E+00  0.000E+00
  -9.931  0.000E+00  0.000E+00
  -9.921  0.000E+00  0.000E+00
  -9.911  0.000E+00  0.000E+00
  -9.901  0.000E+00  0.000E+00
  -9.891  0.000E+00  0.000E+00
  -9.881  0.000E+00  0.000E+00
  -9.871  0.000E+00  0.000E+00
  -9.861  0.000E+00  0.000E+00
  -9.851  0.000E+00  0.000E+00
  -9.841  0.000E+00  0.000E+00
  -9.831  0.000E+00  0.000E+00
  -9.821  0.000E+00  0.000E+00
  -9.811  0.000E+00  0.000E+00
  -9.801  0.000E+00  0.000E+00
  -9.791  0.000E+00  0.000E+00
  -9.781  0.000E+00  0.000E+00
  -9.771  0.000E+00  0.000E+00
  -9.761  0.000E+00  0.000E+00
  -9.751  0.000E+00  0.000E+00
  -9.741  0.622E-12  0.622E-12
  -9.731  0.199E-12  0.199E-12
  -9.721  0.116E-12  0.116E-12
  -9.711  0.223E-12  0.223E-12
  -9.701  0.195E-12  0.195E-12
  -9.691  0.114E-12  0.114E-12
  -9.681  0.339E-13  0.339E-13
  -9.671  0.121E-13  0.121E-13
  -9.661  0.186E-13  0.186E-13
  -9.651  0.252E-13  0.252E-13
  -9.641  0.243E-13  0.243E-13
  -9.631  0.243E-13  0.243E-13
  -9.621  0.243E-13  0.243E-13
  -9.611  0.243E-13  0.243E-13
  -9.601  0.270E-13  0.270E-13
  -9.591  0.407E-13  0.407E-13
  -9.581  0.545E-13  0.545E-13
  -9.571  0.682E-13  0.682E-13
  -9.561  0.819E-13  0.819E-13
  -9.551  0.736E-13  0.736E-13
  -9.541  0.736E-13  0.736E-13
  -9.531  0.737E-13  0.737E-13
  -9.521  0.738E-13  0.738E-13
  -9.511  0.738E-13  0.738E-13
  -9.501  0.607E-13  0.607E-13
  -9.491  0.519E-13  0.519E-13
  -9.481  0.432E-13  0.432E-13
  -9.471  0.345E-13  0.345E-13
  -9.461  0.258E-13  0.258E-13
  -9.451  0.171E-13  0.171E-13
  -9.441  0.214E-13  0.214E-13
  -9.431  0.348E-13  0.348E-13
  -9.421  0.481E-13  0.481E-13
  -9.411  0.614E-13  0.614E-13
  -9.401  0.747E-13  0.747E-13
  -9.391  0.880E-13  0.880E-13
  -9.381  0.911E-13  0.911E-13
  -9.371  0.891E-13  0.891E-13
  -9.361  0.871E-13  0.871E-13
  -9.351  0.852E-13  0.852E-13
  -9.341  0.832E-13  0.832E-13
  -9.331  0.812E-13  0.812E-13
  -9.321  0.793E-13  0.793E-13
  -9.311  0.773E-13  0.773E-13
  -9.301  0.703E-13  0.703E-13
  -9.291  0.699E-13  0.699E-13
  -9.281  0.695E-13  0.695E-13
  -9.271  0.691E-13  0.691E-13
  -9.261  0.687E-13  0.687E-13
  -9.251  0.684E-13  0.684E-13
  -9.241  0.680E-13  0.680E-13
  -9.231  0.676E-13  0.676E-13
  -9.221  0.707E-13  0.707E-13
  -9.211  0.794E-13  0.794E-13
  -9.201  0.881E-13  0.881E-13
  -9.191  0.968E-13  0.968E-13
  -9.181  0.105E-12  0.105E-12
  -9.171  0.114E-12  0.114E-12
  -9.161  0.123E-12  0.123E-12
  -9.151  0.132E-12  0.132E-12
  -9.141  0.135E-12  0.135E-12
  -9.131  0.154E-12  0.154E-12
  -9.121  0.173E-12  0.173E-12
  -9.111  0.192E-12  0.192E-12
  -9.101  0.211E-12  0.211E-12
  -9.091  0.230E-12  0.230E-12
  -9.081  0.250E-12  0.250E-12
  -9.071  0.269E-12  0.269E-12
  -9.061  0.288E-12  0.288E-12
  -9.051  0.280E-12  0.280E-12
  -9.041  0.269E-12  0.269E-12
  -9.031  0.257E-12  0.257E-12
  -9.021  0.246E-12  0.246E-12
  -9.011  0.234E-12  0.234E-12
  -9.001  0.223E-12  0.223E-12
  -8.991  0.211E-12  0.211E-12
  -8.981  0.200E-12  0.200E-12
  -8.971  0.188E-12  0.188E-12
  -8.961  0.176E-12  0.176E-12
  -8.951  0.155E-12  0.155E-12
  -8.941  0.145E-12  0.145E-12
  -8.931  0.135E-12  0.135E-12
  -8.921  0.125E-12  0.125E-12
  -8.911  0.115E-12  0.115E-12
  -8.901  0.105E-12  0.105E-12
  -8.891  0.954E-13  0.954E-13
  -8.881  0.855E-13  0.855E-13
  -8.871  0.755E-13  0.755E-13
  -8.861  0.656E-13  0.656E-13
  -8.851  0.557E-13  0.557E-13
  -8.841  0.654E-13  0.654E-13
  -8.831  0.818E-13  0.818E-13
  -8.821  0.982E-13  0.982E-13
  -8.811  0.115E-12  0.115E-12
  -8.801  0.131E-12  0.131E-12
  -8.791  0.147E-12  0.147E-12
  -8.781  0.164E-12  0.164E-12
  -8.771  0.180E-12  0.180E-12
  -8.761  0.197E-12  0.197E-12
  -8.751  0.213E-12  0.213E-12
  -8.741  0.229E-12  0.229E-12
  -8.731  0.219E-12  0.219E-12
  -8.721  0.216E-12  0.216E-12
  -8.711  0.213E-12  0.213E-12
  -8.701  0.209E-12  0.209E-12
  -8.691  0.206E-12  0.206E-12
  -8.681  0.203E-12  0.203E-12
  -8.671  0.200E-12  0.200E-12
  -8.661  0.197E-12  0.197E-12
  -8.651  0.193E-12  0.193E-12
  -8.641  0.190E-12  0.190E-12
  -8.631  0.187E-12  0.187E-12
  -8.621  0.184E-12  0.184E-12
  -8.611  0.161E-12  0.161E-12
  -8.601  0.147E-12  0.147E-12
  -8.591  0.133E-12  0.133E-12
  -8.581  0.119E-12  0.119E-12
  -8.571  0.105E-12  0.105E-12
  -8.561  0.914E-13  0.914E-13
  -8.551  0.775E-13  0.775E-13
  -8.541  0.635E-13  0.635E-13
  -8.531  0.496E-13  0.496E-13
  -8.521  0.356E-13  0.356E-13
  -8.511  0.217E-13  0.217E-13
  -8.501  0.774E-14  0.774E-14
  -8.491  0.607E-15  0.607E-15
  -8.481  0.113E-14  0.113E-14
  -8.471  0.166E-14  0.166E-14
  -8.461  0.219E-14  0.219E-14
  -8.451  0.271E-14  0.271E-14
  -8.441  0.324E-14  0.324E-14
  -8.431  0.377E-14  0.377E-14
  -8.421  0.429E-14  0.429E-14
  -8.411  0.482E-14  0.482E-14
  -8.401  0.535E-14  0.535E-14
  -8.391  0.587E-14  0.587E-14
  -8.381  0.640E-14  0.640E-14
  -8.371  0.693E-14  0.693E-14
  -8.361  0.715E-14  0.715E-14
  -8.351  0.778E-14  0.778E-14
  -8.341  0.840E-14  0.840E-14
  -8.331  0.903E-14  0.903E-14
  -8.321  0.966E-14  0.966E-14
  -8.311  0.103E-13  0.103E-13
  -8.301  0.109E-13  0.109E-13
  -8.291  0.115E-13  0.115E-13
  -8.281  0.122E-13  0.122E-13
  -8.271  0.128E-13  0.128E-13
  -8.261  0.134E-13  0.134E-13
  -8.251  0.140E-13  0.140E-13
  -8.241  0.147E-13  0.147E-13
  -8.231  0.153E-13  0.153E-13
  -8.221  0.170E-13  0.170E-13
  -8.211  0.203E-13  0.203E-13
  -8.201  0.236E-13  0.236E-13
  -8.191  0.270E-13  0.270E-13
  -8.181  0.303E-13  0.303E-13
  -8.171  0.337E-13  0.337E-13
  -8.161  0.370E-13  0.370E-13
  -8.151  0.403E-13  0.403E-13
  -8.141  0.437E-13  0.437E-13
  -8.131  0.470E-13  0.470E-13
  -8.121  0.504E-13  0.504E-13
  -8.111  0.537E-13  0.537E-13
  -8.101  0.570E-13  0.570E-13
  -8.091  0.604E-13  0.604E-13
  -8.081  0.596E-13  0.596E-13
  -8.071  0.574E-13  0.574E-13
  -8.061  0.553E-13  0.553E-13
  -8.051  0.531E-13  0.531E-13
  -8.041  0.509E-13  0.509E-13
  -8.031  0.488E-13  0.488E-13
  -8.021  0.466E-13  0.466E-13
  -8.011  0.444E-13  0.444E-13
  -8.001  0.422E-13  0.422E-13
  -7.991  0.401E-13  0.401E-13
  -7.981  0.379E-13  0.379E-13
  -7.971  0.357E-13  0.357E-13
  -7.961  0.336E-13  0.336E-13
  -7.951  0.314E-13  0.314E-13
  -7.941  0.292E-13  0.292E-13
  -7.931  0.262E-13  0.262E-13
  -7.921  0.249E-13  0.249E-13
  -7.911  0.237E-13  0.237E-13
  -7.901  0.225E-13  0.225E-13
  -7.891  0.213E-13  0.213E-13
  -7.881  0.200E-13  0.200E-13
  -7.871  0.188E-13  0.188E-13
  -7.861  0.176E-13  0.176E-13
  -7.851  0.164E-13  0.164E-13
  -7.841  0.151E-13  0.151E-13
  -7.831  0.139E-13  0.139E-13
  -7.821  0.127E-13  0.127E-13
  -7.811  0.115E-13  0.115E-13
  -7.801  0.102E-13  0.102E-13
  -7.791  0.902E-14  0.902E-14
  -7.781  0.780E-14  0.780E-14
  -7.771  0.700E-14  0.700E-14
  -7.761  0.700E-14  0.700E-14
  -7.751  0.700E-14  0.700E-14
  -7.741  0.701E-14  0.701E-14
  -7.731  0.701E-14  0.701E-14
  -7.721  0.701E-14  0.701E-14
  -7.711  0.701E-14  0.701E-14
  -7.701  0.701E-14  0.701E-14
  -7.691  0.701E-14  0.701E-14
  -7.681  0.701E-14  0.701E-14
  -7.671  0.702E-14  0.702E-14
  -7.661  0.702E-14  0.702E-14
  -7.651  0.702E-14  0.702E-14
  -7.641  0.702E-14  0.702E-14
  -7.631  0.702E-14  0.702E-14
  -7.621  0.702E-14  0.702E-14
  -7.611  0.667E-14  0.667E-14
  -7.601  0.633E-14  0.633E-14
  -7.591  0.600E-14  0.600E-14
  -7.581  0.566E-14  0.566E-14
  -7.571  0.533E-14  0.533E-14
  -7.561  0.499E-14  0.499E-14
  -7.551  0.466E-14  0.466E-14
  -7.541  0.432E-14  0.432E-14
  -7.531  0.399E-14  0.399E-14
  -7.521  0.365E-14  0.365E-14
  -7.511  0.332E-14  0.332E-14
  -7.501  0.298E-14  0.298E-14
  -7.491  0.265E-14  0.265E-14
  -7.481  0.231E-14  0.231E-14
  -7.471  0.198E-14  0.198E-14
  -7.461  0.164E-14  0.164E-14
  -7.451  0.131E-14  0.131E-14
  -7.441  0.146E-14  0.146E-14
  -7.431  0.262E-14  0.262E-14
  -7.421  0.379E-14  0.379E-14
  -7.411  0.495E-14  0.495E-14
  -7.401  0.612E-14  0.612E-14
  -7.391  0.728E-14  0.728E-14
  -7.381  0.845E-14  0.845E-14
  -7.371  0.961E-14  0.961E-14
  -7.361  0.108E-13  0.108E-13
  -7.351  0.119E-13  0.119E-13
  -7.341  0.131E-13  0.131E-13
  -7.331  0.143E-13  0.143E-13
  -7.321  0.154E-13  0.154E-13
  -7.311  0.166E-13  0.166E-13
  -7.301  0.178E-13  0.178E-13
  -7.291  0.189E-13  0.189E-13
  -7.281  0.201E-13  0.201E-13
  -7.271  0.213E-13  0.213E-13
  -7.261  0.200E-13  0.200E-13
  -7.251  0.190E-13  0.190E-13
  -7.241  0.180E-13  0.180E-13
  -7.231  0.170E-13  0.170E-13
  -7.221  0.160E-13  0.160E-13
  -7.211  0.150E-13  0.150E-13
  -7.201  0.140E-13  0.140E-13
  -7.191  0.130E-13  0.130E-13
  -7.181  0.120E-13  0.120E-13
  -7.171  0.110E-13  0.110E-13
  -7.161  0.999E-14  0.999E-14
  -7.151  0.899E-14  0.899E-14
  -7.141  0.799E-14  0.799E-14
  -7.131  0.699E-14  0.699E-14
  -7.121  0.600E-14  0.600E-14
  -7.111  0.500E-14  0.500E-14
  -7.101  0.400E-14  0.400E-14
  -7.091  0.300E-14  0.300E-14
  -7.081  0.325E-14  0.325E-14
  -7.071  0.451E-14  0.451E-14
  -7.061  0.577E-14  0.577E-14
  -7.051  0.704E-14  0.704E-14
  -7.041  0.830E-14  0.830E-14
  -7.031  0.956E-14  0.956E-14
  -7.021  0.108E-13  0.108E-13
  -7.011  0.121E-13  0.121E-13
  -7.001  0.134E-13  0.134E-13
  -6.991  0.146E-13  0.146E-13
  -6.981  0.159E-13  0.159E-13
  -6.971  0.171E-13  0.171E-13
  -6.961  0.184E-13  0.184E-13
  -6.951  0.197E-13  0.197E-13
  -6.941  0.209E-13  0.209E-13
  -6.931  0.222E-13  0.222E-13
  -6.921  0.235E-13  0.235E-13
  -6.911  0.247E-13  0.247E-13
  -6.901  0.260E-13  0.260E-13
  -6.891  0.340E-13  0.340E-13
  -6.881  0.451E-13  0.451E-13
  -6.871  0.563E-13  0.563E-13
  -6.861  0.675E-13  0.675E-13
  -6.851  0.786E-13  0.786E-13
  -6.841  0.898E-13  0.898E-13
  -6.831  0.101E-12  0.101E-12
  -6.821  0.112E-12  0.112E-12
  -6.811  0.123E-12  0.123E-12
  -6.801  0.134E-12  0.134E-12
  -6.791  0.146E-12  0.146E-12
  -6.781  0.157E-12  0.157E-12
  -6.771  0.168E-12  0.168E-12
  -6.761  0.179E-12  0.179E-12
  -6.751  0.190E-12  0.190E-12
  -6.741  0.201E-12  0.201E-12
  -6.731  0.212E-12  0.212E-12
  -6.721  0.224E-12  0.224E-12
  -6.711  0.235E-12  0.235E-12
  -6.701  0.233E-12  0.233E-12
  -6.691  0.227E-12  0.227E-12
  -6.681  0.222E-12  0.222E-12
  -6.671  0.216E-12  0.216E-12
  -6.661  0.210E-12  0.210E-12
  -6.651  0.205E-12  0.205E-12
  -6.641  0.199E-12  0.199E-12
  -6.631  0.193E-12  0.193E-12
  -6.621  0.188E-12  0.188E-12
  -6.611  0.182E-12  0.182E-12
  -6.601  0.176E-12  0.176E-12
  -6.591  0.171E-12  0.171E-12
  -6.581  0.165E-12  0.165E-12
  -6.571  0.159E-12  0.159E-12
  -6.561  0.153E-12  0.153E-12
  -6.551  0.148E-12  0.148E-12
  -6.541  0.142E-12  0.142E-12
  -6.531  0.136E-12  0.136E-12
  -6.521  0.131E-12  0.131E-12
  -6.511  0.125E-12  0.125E-12
  -6.501  0.117E-12  0.117E-12
  -6.491  0.116E-12  0.116E-12
  -6.481  0.115E-12  0.115E-12
  -6.471  0.115E-12  0.115E-12
  -6.461  0.114E-12  0.114E-12
  -6.451  0.113E-12  0.113E-12
  -6.441  0.112E-12  0.112E-12
  -6.431  0.112E-12  0.112E-12
  -6.421  0.111E-12  0.111E-12
  -6.411  0.110E-12  0.110E-12
  -6.401  0.109E-12  0.109E-12
  -6.391  0.108E-12  0.108E-12
  -6.381  0.108E-12  0.108E-12
  -6.371  0.107E-12  0.107E-12
  -6.361  0.106E-12  0.106E-12
  -6.351  0.105E-12  0.105E-12
  -6.341  0.105E-12  0.105E-12
  -6.331  0.104E-12  0.104E-12
  -6.321  0.103E-12  0.103E-12
  -6.311  0.102E-12  0.102E-12
  -6.301  0.101E-12  0.101E-12
  -6.291  0.986E-13  0.986E-13
  -6.281  0.994E-13  0.994E-13
  -6.271  0.100E-12  0.100E-12
  -6.261  0.101E-12  0.101E-12
  -6.251  0.102E-12  0.102E-12
  -6.241  0.103E-12  0.103E-12
  -6.231  0.103E-12  0.103E-12
  -6.221  0.104E-12  0.104E-12
  -6.211  0.105E-12  0.105E-12
  -6.201  0.106E-12  0.106E-12
  -6.191  0.106E-12  0.106E-12
  -6.181  0.107E-12  0.107E-12
  -6.171  0.108E-12  0.108E-12
  -6.161  0.109E-12  0.109E-12
  -6.151  0.110E-12  0.110E-12
  -6.141  0.110E-12  0.110E-12
  -6.131  0.111E-12  0.111E-12
  -6.121  0.112E-12  0.112E-12
  -6.111  0.113E-12  0.113E-12
  -6.101  0.114E-12  0.114E-12
  -6.091  0.114E-12  0.114E-12
  -6.081  0.111E-12  0.111E-12
  -6.071  0.108E-12  0.108E-12
  -6.061  0.105E-12  0.105E-12
  -6.051  0.102E-12  0.102E-12
  -6.041  0.992E-13  0.992E-13
  -6.031  0.962E-13  0.962E-13
  -6.021  0.933E-13  0.933E-13
  -6.011  0.903E-13  0.903E-13
  -6.001  0.874E-13  0.874E-13
  -5.991  0.844E-13  0.844E-13
  -5.981  0.815E-13  0.815E-13
  -5.971  0.785E-13  0.785E-13
  -5.961  0.756E-13  0.756E-13
  -5.951  0.727E-13  0.727E-13
  -5.941  0.697E-13  0.697E-13
  -5.931  0.668E-13  0.668E-13
  -5.921  0.638E-13  0.638E-13
  -5.911  0.609E-13  0.609E-13
  -5.901  0.579E-13  0.579E-13
  -5.891  0.550E-13  0.550E-13
  -5.881  0.520E-13  0.520E-13
  -5.871  0.491E-13  0.491E-13
  -5.861  0.467E-13  0.467E-13
  -5.851  0.487E-13  0.487E-13
  -5.841  0.507E-13  0.507E-13
  -5.831  0.528E-13  0.528E-13
  -5.821  0.548E-13  0.548E-13
  -5.811  0.568E-13  0.568E-13
  -5.801  0.588E-13  0.588E-13
  -5.791  0.609E-13  0.609E-13
  -5.781  0.629E-13  0.629E-13
  -5.771  0.649E-13  0.649E-13
  -5.761  0.670E-13  0.670E-13
  -5.751  0.690E-13  0.690E-13
  -5.741  0.710E-13  0.710E-13
  -5.731  0.731E-13  0.731E-13
  -5.721  0.751E-13  0.751E-13
  -5.711  0.771E-13  0.771E-13
  -5.701  0.792E-13  0.792E-13
  -5.691  0.812E-13  0.812E-13
  -5.681  0.832E-13  0.832E-13
  -5.671  0.852E-13  0.852E-13
  -5.661  0.873E-13  0.873E-13
  -5.651  0.893E-13  0.893E-13
  -5.641  0.913E-13  0.913E-13
  -5.631  0.870E-13  0.870E-13
  -5.621  0.843E-13  0.843E-13
  -5.611  0.816E-13  0.816E-13
  -5.601  0.789E-13  0.789E-13
  -5.591  0.762E-13  0.762E-13
  -5.581  0.735E-13  0.735E-13
  -5.571  0.709E-13  0.709E-13
  -5.561  0.682E-13  0.682E-13
  -5.551  0.655E-13  0.655E-13
  -5.541  0.628E-13  0.628E-13
  -5.531  0.601E-13  0.601E-13
  -5.521  0.574E-13  0.574E-13
  -5.511  0.547E-13  0.547E-13
  -5.501  0.520E-13  0.520E-13
  -5.491  0.493E-13  0.493E-13
  -5.481  0.467E-13  0.467E-13
  -5.471  0.440E-13  0.440E-13
  -5.461  0.413E-13  0.413E-13
  -5.451  0.386E-13  0.386E-13
  -5.441  0.359E-13  0.359E-13
  -5.431  0.332E-13  0.332E-13
  -5.421  0.305E-13  0.305E-13
  -5.411  0.278E-13  0.278E-13
  -5.401  0.262E-13  0.262E-13
  -5.391  0.258E-13  0.258E-13
  -5.381  0.255E-13  0.255E-13
  -5.371  0.251E-13  0.251E-13
  -5.361  0.248E-13  0.248E-13
  -5.351  0.244E-13  0.244E-13
  -5.341  0.241E-13  0.241E-13
  -5.331  0.238E-13  0.238E-13
  -5.321  0.234E-13  0.234E-13
  -5.311  0.231E-13  0.231E-13
  -5.301  0.227E-13  0.227E-13
  -5.291  0.224E-13  0.224E-13
  -5.281  0.220E-13  0.220E-13
  -5.271  0.217E-13  0.217E-13
  -5.261  0.213E-13  0.213E-13
  -5.251  0.210E-13  0.210E-13
  -5.241  0.206E-13  0.206E-13
  -5.231  0.203E-13  0.203E-13
  -5.221  0.200E-13  0.200E-13
  -5.211  0.196E-13  0.196E-13
  -5.201  0.193E-13  0.193E-13
  -5.191  0.189E-13  0.189E-13
  -5.181  0.186E-13  0.186E-13
  -5.171  0.178E-13  0.178E-13
  -5.161  0.171E-13  0.171E-13
  -5.151  0.164E-13  0.164E-13
  -5.141  0.158E-13  0.158E-13
  -5.131  0.151E-13  0.151E-13
  -5.121  0.144E-13  0.144E-13
  -5.111  0.138E-13  0.138E-13
  -5.101  0.131E-13  0.131E-13
  -5.091  0.124E-13  0.124E-13
  -5.081  0.118E-13  0.118E-13
  -5.071  0.111E-13  0.111E-13
  -5.061  0.105E-13  0.105E-13
  -5.051  0.979E-14  0.979E-14
  -5.041  0.912E-14  0.912E-14
  -5.031  0.846E-14  0.846E-14
  -5.021  0.779E-14  0.779E-14
  -5.011  0.712E-14  0.712E-14
  -5.001  0.646E-14  0.646E-14
  -4.991  0.579E-14  0.579E-14
  -4.981  0.513E-14  0.513E-14
  -4.971  0.446E-14  0.446E-14
  -4.961  0.380E-14  0.380E-14
  -4.951  0.313E-14  0.313E-14
  -4.941  0.247E-14  0.247E-14
  -4.931  0.180E-14  0.180E-14
  -4.921  0.177E-14  0.177E-14
  -4.911  0.203E-14  0.203E-14
  -4.901  0.230E-14  0.230E-14
  -4.891  0.256E-14  0.256E-14
  -4.881  0.283E-14  0.283E-14
  -4.871  0.309E-14  0.309E-14
  -4.861  0.336E-14  0.336E-14
  -4.851  0.362E-14  0.362E-14
  -4.841  0.388E-14  0.388E-14
  -4.831  0.415E-14  0.415E-14
  -4.821  0.441E-14  0.441E-14
  -4.811  0.468E-14  0.468E-14
  -4.801  0.494E-14  0.494E-14
  -4.791  0.520E-14  0.520E-14
  -4.781  0.547E-14  0.547E-14
  -4.771  0.573E-14  0.573E-14
  -4.761  0.600E-14  0.600E-14
  -4.751  0.626E-14  0.626E-14
  -4.741  0.653E-14  0.653E-14
  -4.731  0.679E-14  0.679E-14
  -4.721  0.705E-14  0.705E-14
  -4.711  0.732E-14  0.732E-14
  -4.701  0.758E-14  0.758E-14
  -4.691  0.785E-14  0.785E-14
  -4.681  0.811E-14  0.811E-14
  -4.671  0.118E-13  0.118E-13
  -4.661  0.162E-13  0.162E-13
  -4.651  0.207E-13  0.207E-13
  -4.641  0.251E-13  0.251E-13
  -4.631  0.296E-13  0.296E-13
  -4.621  0.340E-13  0.340E-13
  -4.611  0.385E-13  0.385E-13
  -4.601  0.430E-13  0.430E-13
  -4.591  0.474E-13  0.474E-13
  -4.581  0.519E-13  0.519E-13
  -4.571  0.563E-13  0.563E-13
  -4.561  0.608E-13  0.608E-13
  -4.551  0.653E-13  0.653E-13
  -4.541  0.697E-13  0.697E-13
  -4.531  0.742E-13  0.742E-13
  -4.521  0.786E-13  0.786E-13
  -4.511  0.831E-13  0.831E-13
  -4.501  0.875E-13  0.875E-13
  -4.491  0.920E-13  0.920E-13
  -4.481  0.965E-13  0.965E-13
  -4.471  0.101E-12  0.101E-12
  -4.461  0.105E-12  0.105E-12
  -4.451  0.110E-12  0.110E-12
  -4.441  0.114E-12  0.114E-12
  -4.431  0.119E-12  0.119E-12
  -4.421  0.281E-14  0.281E-14
  -4.411  0.341E-14  0.341E-14
  -4.401  0.401E-14  0.401E-14
  -4.391  0.462E-14  0.462E-14
  -4.381  0.522E-14  0.522E-14
  -4.371  0.582E-14  0.582E-14
  -4.361  0.642E-14  0.642E-14
  -4.351  0.702E-14  0.702E-14
  -4.341  0.763E-14  0.763E-14
  -4.331  0.823E-14  0.823E-14
  -4.321  0.883E-14  0.883E-14
  -4.311  0.943E-14  0.943E-14
  -4.301  0.100E-13  0.100E-13
  -4.291  0.106E-13  0.106E-13
  -4.281  0.112E-13  0.112E-13
  -4.271  0.118E-13  0.118E-13
  -4.261  0.124E-13  0.124E-13
  -4.251  0.130E-13  0.130E-13
  -4.241  0.136E-13  0.136E-13
  -4.231  0.142E-13  0.142E-13
  -4.221  0.148E-13  0.148E-13
  -4.211  0.155E-13  0.155E-13
  -4.201  0.161E-13  0.161E-13
  -4.191  0.167E-13  0.167E-13
  -4.181  0.173E-13  0.173E-13
  -4.171  0.179E-13  0.179E-13
  -4.161  0.177E-13  0.177E-13
  -4.151  0.174E-13  0.174E-13
  -4.141  0.172E-13  0.172E-13
  -4.131  0.169E-13  0.169E-13
  -4.121  0.166E-13  0.166E-13
  -4.111  0.164E-13  0.164E-13
  -4.101  0.161E-13  0.161E-13
  -4.091  0.158E-13  0.158E-13
  -4.081  0.155E-13  0.155E-13
  -4.071  0.153E-13  0.153E-13
  -4.061  0.150E-13  0.150E-13
  -4.051  0.147E-13  0.147E-13
  -4.041  0.145E-13  0.145E-13
  -4.031  0.142E-13  0.142E-13
  -4.021  0.139E-13  0.139E-13
  -4.011  0.137E-13  0.137E-13
  -4.001  0.134E-13  0.134E-13
  -3.991  0.131E-13  0.131E-13
  -3.981  0.129E-13  0.129E-13
  -3.971  0.126E-13  0.126E-13
  -3.961  0.123E-13  0.123E-13
  -3.951  0.121E-13  0.121E-13
  -3.941  0.118E-13  0.118E-13
  -3.931  0.115E-13  0.115E-13
  -3.921  0.113E-13  0.113E-13
  -3.911  0.110E-13  0.110E-13
  -3.901  0.107E-13  0.107E-13
  -3.891  0.103E-13  0.103E-13
  -3.881  0.101E-13  0.101E-13
  -3.871  0.989E-14  0.989E-14
  -3.861  0.969E-14  0.969E-14
  -3.851  0.949E-14  0.949E-14
  -3.841  0.928E-14  0.928E-14
  -3.831  0.908E-14  0.908E-14
  -3.821  0.888E-14  0.888E-14
  -3.811  0.868E-14  0.868E-14
  -3.801  0.847E-14  0.847E-14
  -3.791  0.827E-14  0.827E-14
  -3.781  0.807E-14  0.807E-14
  -3.771  0.787E-14  0.787E-14
  -3.761  0.767E-14  0.767E-14
  -3.751  0.746E-14  0.746E-14
  -3.741  0.726E-14  0.726E-14
  -3.731  0.706E-14  0.706E-14
  -3.721  0.686E-14  0.686E-14
  -3.711  0.665E-14  0.665E-14
  -3.701  0.645E-14  0.645E-14
  -3.691  0.625E-14  0.625E-14
  -3.681  0.605E-14  0.605E-14
  -3.671  0.584E-14  0.584E-14
  -3.661  0.564E-14  0.564E-14
  -3.651  0.544E-14  0.544E-14
  -3.641  0.524E-14  0.524E-14
  -3.631  0.504E-14  0.504E-14
  -3.621  0.500E-14  0.500E-14
  -3.611  0.523E-14  0.523E-14
  -3.601  0.545E-14  0.545E-14
  -3.591  0.567E-14  0.567E-14
  -3.581  0.590E-14  0.590E-14
  -3.571  0.612E-14  0.612E-14
  -3.561  0.635E-14  0.635E-14
  -3.551  0.657E-14  0.657E-14
  -3.541  0.680E-14  0.680E-14
  -3.531  0.702E-14  0.702E-14
  -3.521  0.724E-14  0.724E-14
  -3.511  0.747E-14  0.747E-14
  -3.501  0.769E-14  0.769E-14
  -3.491  0.792E-14  0.792E-14
  -3.481  0.814E-14  0.814E-14
  -3.471  0.836E-14  0.836E-14
  -3.461  0.859E-14  0.859E-14
  -3.451  0.881E-14  0.881E-14
  -3.441  0.904E-14  0.904E-14
  -3.431  0.926E-14  0.926E-14
  -3.421  0.949E-14  0.949E-14
  -3.411  0.971E-14  0.971E-14
  -3.401  0.993E-14  0.993E-14
  -3.391  0.102E-13  0.102E-13
  -3.381  0.104E-13  0.104E-13
  -3.371  0.106E-13  0.106E-13
  -3.361  0.108E-13  0.108E-13
  -3.351  0.111E-13  0.111E-13
  -3.341  0.124E-13  0.124E-13
  -3.331  0.140E-13  0.140E-13
  -3.321  0.155E-13  0.155E-13
  -3.311  0.171E-13  0.171E-13
  -3.301  0.187E-13  0.187E-13
  -3.291  0.203E-13  0.203E-13
  -3.281  0.219E-13  0.219E-13
  -3.271  0.235E-13  0.235E-13
  -3.261  0.251E-13  0.251E-13
  -3.251  0.267E-13  0.267E-13
  -3.241  0.283E-13  0.283E-13
  -3.231  0.299E-13  0.299E-13
  -3.221  0.315E-13  0.315E-13
  -3.211  0.331E-13  0.331E-13
  -3.201  0.347E-13  0.347E-13
  -3.191  0.363E-13  0.363E-13
  -3.181  0.379E-13  0.379E-13
  -3.171  0.395E-13  0.395E-13
  -3.161  0.411E-13  0.411E-13
  -3.151  0.427E-13  0.427E-13
  -3.141  0.443E-13  0.443E-13
  -3.131  0.458E-13  0.458E-13
  -3.121  0.474E-13  0.474E-13
  -3.111  0.490E-13  0.490E-13
  -3.101  0.506E-13  0.506E-13
  -3.091  0.522E-13  0.522E-13
  -3.081  0.538E-13  0.538E-13
  -3.071  0.554E-13  0.554E-13
  -3.061  0.539E-13  0.539E-13
  -3.051  0.526E-13  0.526E-13
  -3.041  0.513E-13  0.513E-13
  -3.031  0.500E-13  0.500E-13
  -3.021  0.487E-13  0.487E-13
  -3.011  0.474E-13  0.474E-13
  -3.001  0.461E-13  0.461E-13
  -2.991  0.448E-13  0.448E-13
  -2.981  0.435E-13  0.435E-13
  -2.971  0.422E-13  0.422E-13
  -2.961  0.409E-13  0.409E-13
  -2.951  0.396E-13  0.396E-13
  -2.941  0.383E-13  0.383E-13
  -2.931  0.370E-13  0.370E-13
  -2.921  0.357E-13  0.357E-13
  -2.911  0.344E-13  0.344E-13
  -2.901  0.331E-13  0.331E-13
  -2.891  0.318E-13  0.318E-13
  -2.881  0.305E-13  0.305E-13
  -2.871  0.292E-13  0.292E-13
  -2.861  0.278E-13  0.278E-13
  -2.851  0.265E-13  0.265E-13
  -2.841  0.252E-13  0.252E-13
  -2.831  0.239E-13  0.239E-13
  -2.821  0.226E-13  0.226E-13
  -2.811  0.213E-13  0.213E-13
  -2.801  0.200E-13  0.200E-13
  -2.791  0.187E-13  0.187E-13
  -2.781  0.174E-13  0.174E-13
  -2.771  0.178E-13  0.178E-13
  -2.761  0.185E-13  0.185E-13
  -2.751  0.192E-13  0.192E-13
  -2.741  0.199E-13  0.199E-13
  -2.731  0.207E-13  0.207E-13
  -2.721  0.214E-13  0.214E-13
  -2.711  0.221E-13  0.221E-13
  -2.701  0.228E-13  0.228E-13
  -2.691  0.235E-13  0.235E-13
  -2.681  0.242E-13  0.242E-13
  -2.671  0.249E-13  0.249E-13
  -2.661  0.256E-13  0.256E-13
  -2.651  0.264E-13  0.264E-13
  -2.641  0.271E-13  0.271E-13
  -2.631  0.278E-13  0.278E-13
  -2.621  0.285E-13  0.285E-13
  -2.611  0.292E-13  0.292E-13
  -2.601  0.299E-13  0.299E-13
  -2.591  0.306E-13  0.306E-13
  -2.581  0.314E-13  0.314E-13
  -2.571  0.321E-13  0.321E-13
  -2.561  0.328E-13  0.328E-13
  -2.551  0.335E-13  0.335E-13
  -2.541  0.342E-13  0.342E-13
  -2.531  0.349E-13  0.349E-13
  -2.521  0.356E-13  0.356E-13
  -2.511  0.363E-13  0.363E-13
  -2.501  0.371E-13  0.371E-13
  -2.491  0.378E-13  0.378E-13
  -2.481  0.369E-13  0.369E-13
  -2.471  0.362E-13  0.362E-13
  -2.461  0.356E-13  0.356E-13
  -2.451  0.350E-13  0.350E-13
  -2.441  0.344E-13  0.344E-13
  -2.431  0.337E-13  0.337E-13
  -2.421  0.331E-13  0.331E-13
  -2.411  0.325E-13  0.325E-13
  -2.401  0.318E-13  0.318E-13
  -2.391  0.312E-13  0.312E-13
  -2.381  0.306E-13  0.306E-13
  -2.371  0.300E-13  0.300E-13
  -2.361  0.293E-13  0.293E-13
  -2.351  0.287E-13  0.287E-13
  -2.341  0.281E-13  0.281E-13
  -2.331  0.275E-13  0.275E-13
  -2.321  0.268E-13  0.268E-13
  -2.311  0.262E-13  0.262E-13
  -2.301  0.256E-13  0.256E-13
  -2.291  0.250E-13  0.250E-13
  -2.281  0.243E-13  0.243E-13
  -2.271  0.237E-13  0.237E-13
  -2.261  0.231E-13  0.231E-13
  -2.251  0.225E-13  0.225E-13
  -2.241  0.218E-13  0.218E-13
  -2.231  0.212E-13  0.212E-13
  -2.221  0.206E-13  0.206E-13
  -2.211  0.199E-13  0.199E-13
  -2.201  0.193E-13  0.193E-13
  -2.191  0.187E-13  0.187E-13
  -2.181  0.213E-13  0.213E-13
  -2.171  0.242E-13  0.242E-13
  -2.161  0.271E-13  0.271E-13
  -2.151  0.300E-13  0.300E-13
  -2.141  0.329E-13  0.329E-13
  -2.131  0.358E-13  0.358E-13
  -2.121  0.387E-13  0.387E-13
  -2.111  0.416E-13  0.416E-13
  -2.101  0.445E-13  0.445E-13
  -2.091  0.474E-13  0.474E-13
  -2.081  0.503E-13  0.503E-13
  -2.071  0.532E-13  0.532E-13
  -2.061  0.562E-13  0.562E-13
  -2.051  0.591E-13  0.591E-13
  -2.041  0.620E-13  0.620E-13
  -2.031  0.649E-13  0.649E-13
  -2.021  0.678E-13  0.678E-13
  -2.011  0.707E-13  0.707E-13
  -2.001  0.736E-13  0.736E-13
  -1.991  0.765E-13  0.765E-13
  -1.981  0.794E-13  0.794E-13
  -1.971  0.823E-13  0.823E-13
  -1.961  0.852E-13  0.852E-13
  -1.951  0.881E-13  0.881E-13
  -1.941  0.910E-13  0.910E-13
  -1.931  0.939E-13  0.939E-13
  -1.921  0.968E-13  0.968E-13
  -1.911  0.997E-13  0.997E-13
  -1.901  0.103E-12  0.103E-12
  -1.891  0.106E-12  0.106E-12
  -1.881  0.102E-12  0.102E-12
  -1.871  0.989E-13  0.989E-13
  -1.861  0.957E-13  0.957E-13
  -1.851  0.925E-13  0.925E-13
  -1.841  0.893E-13  0.893E-13
  -1.831  0.861E-13  0.861E-13
  -1.821  0.829E-13  0.829E-13
  -1.811  0.797E-13  0.797E-13
  -1.801  0.765E-13  0.765E-13
  -1.791  0.733E-13  0.733E-13
  -1.781  0.701E-13  0.701E-13
  -1.771  0.669E-13  0.669E-13
  -1.761  0.637E-13  0.637E-13
  -1.751  0.605E-13  0.605E-13
  -1.741  0.573E-13  0.573E-13
  -1.731  0.541E-13  0.541E-13
  -1.721  0.509E-13  0.509E-13
  -1.711  0.477E-13  0.477E-13
  -1.701  0.445E-13  0.445E-13
  -1.691  0.413E-13  0.413E-13
  -1.681  0.381E-13  0.381E-13
  -1.671  0.349E-13  0.349E-13
  -1.661  0.317E-13  0.317E-13
  -1.651  0.284E-13  0.284E-13
  -1.641  0.252E-13  0.252E-13
  -1.631  0.220E-13  0.220E-13
  -1.621  0.188E-13  0.188E-13
  -1.611  0.156E-13  0.156E-13
  -1.601  0.124E-13  0.124E-13
  -1.591  0.923E-14  0.923E-14
  -1.581  0.635E-14  0.635E-14
  -1.571  0.770E-14  0.770E-14
  -1.561  0.905E-14  0.905E-14
  -1.551  0.104E-13  0.104E-13
  -1.541  0.117E-13  0.117E-13
  -1.531  0.131E-13  0.131E-13
  -1.521  0.144E-13  0.144E-13
  -1.511  0.158E-13  0.158E-13
  -1.501  0.171E-13  0.171E-13
  -1.491  0.185E-13  0.185E-13
  -1.481  0.198E-13  0.198E-13
  -1.471  0.212E-13  0.212E-13
  -1.461  0.225E-13  0.225E-13
  -1.451  0.239E-13  0.239E-13
  -1.441  0.252E-13  0.252E-13
  -1.431  0.265E-13  0.265E-13
  -1.421  0.279E-13  0.279E-13
  -1.411  0.292E-13  0.292E-13
  -1.401  0.306E-13  0.306E-13
  -1.391  0.319E-13  0.319E-13
  -1.381  0.333E-13  0.333E-13
  -1.371  0.346E-13  0.346E-13
  -1.361  0.360E-13  0.360E-13
  -1.351  0.373E-13  0.373E-13
  -1.341  0.387E-13  0.387E-13
  -1.331  0.400E-13  0.400E-13
  -1.321  0.413E-13  0.413E-13
  -1.311  0.427E-13  0.427E-13
  -1.301  0.440E-13  0.440E-13
  -1.291  0.454E-13  0.454E-13
  -1.281  0.467E-13  0.467E-13
  -1.271  0.481E-13  0.481E-13
  -1.261  0.517E-13  0.517E-13
  -1.251  0.560E-13  0.560E-13
  -1.241  0.604E-13  0.604E-13
  -1.231  0.647E-13  0.647E-13
  -1.221  0.691E-13  0.691E-13
  -1.211  0.735E-13  0.735E-13
  -1.201  0.778E-13  0.778E-13
  -1.191  0.822E-13  0.822E-13
  -1.181  0.865E-13  0.865E-13
  -1.171  0.909E-13  0.909E-13
  -1.161  0.952E-13  0.952E-13
  -1.151  0.996E-13  0.996E-13
  -1.141  0.104E-12  0.104E-12
  -1.131  0.108E-12  0.108E-12
  -1.121  0.113E-12  0.113E-12
  -1.111  0.117E-12  0.117E-12
  -1.101  0.121E-12  0.121E-12
  -1.091  0.126E-12  0.126E-12
  -1.081  0.130E-12  0.130E-12
  -1.071  0.134E-12  0.134E-12
  -1.061  0.139E-12  0.139E-12
  -1.051  0.143E-12  0.143E-12
  -1.041  0.147E-12  0.147E-12
  -1.031  0.152E-12  0.152E-12
  -1.021  0.156E-12  0.156E-12
  -1.011  0.161E-12  0.161E-12
  -1.001  0.165E-12  0.165E-12
  -0.991  0.169E-12  0.169E-12
  -0.981  0.174E-12  0.174E-12
  -0.971  0.178E-12  0.178E-12
  -0.961  0.182E-12  0.182E-12
  -0.951  0.180E-12  0.180E-12
  -0.941  0.175E-12  0.175E-12
  -0.931  0.169E-12  0.169E-12
  -0.921  0.164E-12  0.164E-12
  -0.911  0.159E-12  0.159E-12
  -0.901  0.153E-12  0.153E-12
  -0.891  0.148E-12  0.148E-12
  -0.881  0.142E-12  0.142E-12
  -0.871  0.137E-12  0.137E-12
  -0.861  0.131E-12  0.131E-12
  -0.851  0.126E-12  0.126E-12
  -0.841  0.121E-12  0.121E-12
  -0.831  0.115E-12  0.115E-12
  -0.821  0.110E-12  0.110E-12
  -0.811  0.104E-12  0.104E-12
  -0.801  0.989E-13  0.989E-13
  -0.791  0.935E-13  0.935E-13
  -0.781  0.881E-13  0.881E-13
  -0.771  0.827E-13  0.827E-13
  -0.761  0.772E-13  0.772E-13
  -0.751  0.718E-13  0.718E-13
  -0.741  0.664E-13  0.664E-13
  -0.731  0.610E-13  0.610E-13
  -0.721  0.555E-13  0.555E-13
  -0.711  0.501E-13  0.501E-13
  -0.701  0.447E-13  0.447E-13
  -0.691  0.393E-13  0.393E-13
  -0.681  0.338E-13  0.338E-13
  -0.671  0.284E-13  0.284E-13
  -0.661  0.230E-13  0.230E-13
  -0.651  0.176E-13  0.176E-13
  -0.641  0.121E-13  0.121E-13
  -0.631  0.935E-14  0.935E-14
  -0.621  0.979E-14  0.979E-14
  -0.611  0.102E-13  0.102E-13
  -0.601  0.107E-13  0.107E-13
  -0.591  0.111E-13  0.111E-13
  -0.581  0.116E-13  0.116E-13
  -0.571  0.120E-13  0.120E-13
  -0.561  0.125E-13  0.125E-13
  -0.551  0.129E-13  0.129E-13
  -0.541  0.134E-13  0.134E-13
  -0.531  0.138E-13  0.138E-13
  -0.521  0.142E-13  0.142E-13
  -0.511  0.147E-13  0.147E-13
  -0.501  0.151E-13  0.151E-13
  -0.491  0.156E-13  0.156E-13
  -0.481  0.160E-13  0.160E-13
  -0.471  0.165E-13  0.165E-13
  -0.461  0.169E-13  0.169E-13
  -0.451  0.174E-13  0.174E-13
  -0.441  0.178E-13  0.178E-13
  -0.431  0.182E-13  0.182E-13
  -0.421  0.187E-13  0.187E-13
  -0.411  0.191E-13  0.191E-13
  -0.401  0.196E-13  0.196E-13
  -0.391  0.200E-13  0.200E-13
  -0.381  0.205E-13  0.205E-13
  -0.371  0.209E-13  0.209E-13
  -0.361  0.214E-13  0.214E-13
  -0.351  0.218E-13  0.218E-13
  -0.341  0.222E-13  0.222E-13
  -0.331  0.227E-13  0.227E-13
  -0.321  0.231E-13  0.231E-13
  -0.311  0.232E-13  0.232E-13
  -0.301  0.225E-13  0.225E-13
  -0.291  0.219E-13  0.219E-13
  -0.281  0.213E-13  0.213E-13
  -0.271  0.206E-13  0.206E-13
  -0.261  0.200E-13  0.200E-13
  -0.251  0.194E-13  0.194E-13
  -0.241  0.188E-13  0.188E-13
  -0.231  0.181E-13  0.181E-13
  -0.221  0.175E-13  0.175E-13
  -0.211  0.169E-13  0.169E-13
  -0.201  0.162E-13  0.162E-13
  -0.191  0.156E-13  0.156E-13
  -0.181  0.150E-13  0.150E-13
  -0.171  0.143E-13  0.143E-13
  -0.161  0.137E-13  0.137E-13
  -0.151  0.131E-13  0.131E-13
  -0.141  0.124E-13  0.124E-13
  -0.131  0.118E-13  0.118E-13
  -0.121  0.112E-13  0.112E-13
  -0.111  0.105E-13  0.105E-13
  -0.101  0.990E-14  0.990E-14
  -0.091  0.927E-14  0.927E-14
  -0.081  0.864E-14  0.864E-14
  -0.071  0.801E-14  0.801E-14
  -0.061  0.737E-14  0.737E-14
  -0.051  0.674E-14  0.674E-14
  -0.041  0.611E-14  0.611E-14
  -0.031  0.548E-14  0.548E-14
  -0.021  0.485E-14  0.485E-14
  -0.011  0.421E-14  0.421E-14
  -0.001  0.358E-14  0.358E-14
   0.009  0.295E-14  0.295E-14
   0.019  0.118E-13  0.118E-13
   0.029  0.309E-13  0.309E-13
   0.039  0.501E-13  0.501E-13
   0.049  0.692E-13  0.692E-13
   0.059  0.884E-13  0.884E-13
   0.069  0.108E-12  0.108E-12
   0.079  0.127E-12  0.127E-12
   0.089  0.146E-12  0.146E-12
   0.099  0.165E-12  0.165E-12
   0.109  0.184E-12  0.184E-12
   0.119  0.203E-12  0.203E-12
   0.129  0.222E-12  0.222E-12
   0.139  0.242E-12  0.242E-12
   0.149  0.261E-12  0.261E-12
   0.159  0.280E-12  0.280E-12
   0.169  0.299E-12  0.299E-12
   0.179  0.281E-01  0.281E-01
   0.189  0.133E-01  0.133E-01
   0.199  0.844E-02  0.844E-02
   0.209  0.801E-02  0.801E-02
   0.219  0.570E-02  0.570E-02
   0.229  0.540E-02  0.540E-02
   0.239  0.510E-02  0.510E-02
   0.249  0.387E-02  0.387E-02
   0.259  0.366E-02  0.366E-02
   0.269  0.345E-02  0.345E-02
   0.279  0.272E-02  0.272E-02
   0.289  0.257E-02  0.257E-02
   0.299  0.243E-02  0.243E-02
   0.309  0.228E-02  0.228E-02
   0.319  0.184E-02  0.184E-02
   0.329  0.174E-02  0.174E-02
   0.339  0.163E-02  0.163E-02
   0.349  0.153E-02  0.153E-02
   0.359  0.125E-02  0.125E-02
   0.369  0.118E-02  0.118E-02
   0.379  0.110E-02  0.110E-02
   0.389  0.103E-02  0.103E-02
   0.399  0.959E-03  0.959E-03
   0.409  0.887E-03  0.887E-03
   0.419  0.739E-03  0.739E-03
   0.429  0.691E-03  0.691E-03
   0.439  0.643E-03  0.643E-03
   0.449  0.594E-03  0.594E-03
   0.459  0.546E-03  0.546E-03
   0.469  0.498E-03  0.498E-03
   0.479  0.418E-03  0.418E-03
   0.489  0.387E-03  0.387E-03
   0.499  0.357E-03  0.357E-03
   0.509  0.326E-03  0.326E-03
   0.519  0.296E-03  0.296E-03
   0.529  0.265E-03  0.265E-03
   0.539  0.218E-03  0.218E-03
   0.549  0.200E-03  0.200E-03
   0.559  0.183E-03  0.183E-03
   0.569  0.165E-03  0.165E-03
   0.579  0.147E-03  0.147E-03
   0.589  0.130E-03  0.130E-03
   0.599  0.112E-03  0.112E-03
   0.609  0.885E-04  0.885E-04
   0.619  0.799E-04  0.799E-04
   0.629  0.713E-04  0.713E-04
   0.639  0.627E-04  0.627E-04
   0.649  0.541E-04  0.541E-04
   0.659  0.455E-04  0.455E-04
   0.669  0.369E-04  0.369E-04
   0.679  0.283E-04  0.283E-04
   0.689  0.203E-04  0.203E-04
   0.699  0.178E-04  0.178E-04
   0.709  0.153E-04  0.153E-04
   0.719  0.128E-04  0.128E-04
   0.729  0.103E-04  0.103E-04
   0.739  0.783E-05  0.783E-05
   0.749  0.533E-05  0.533E-05
   0.759  0.283E-05  0.283E-05
   0.769  0.326E-06  0.326E-06
   0.779  0.133E-05  0.133E-05
   0.789  0.267E-05  0.267E-05
   0.799  0.402E-05  0.402E-05
   0.809  0.536E-05  0.536E-05
   0.819  0.670E-05  0.670E-05
   0.829  0.804E-05  0.804E-05
   0.839  0.939E-05  0.939E-05
   0.849  0.107E-04  0.107E-04
   0.859  0.121E-04  0.121E-04
   0.869  0.143E-04  0.143E-04
   0.879  0.178E-04  0.178E-04
   0.889  0.213E-04  0.213E-04
   0.899  0.247E-04  0.247E-04
   0.909  0.282E-04  0.282E-04
   0.919  0.317E-04  0.317E-04
   0.929  0.352E-04  0.352E-04
   0.939  0.387E-04  0.387E-04
   0.949  0.422E-04  0.422E-04
   0.959  0.429E-04  0.429E-04
   0.969  0.473E-04  0.473E-04
   0.979  0.516E-04  0.516E-04
   0.989  0.560E-04  0.560E-04
   0.999  0.604E-04  0.604E-04
   1.009  0.648E-04  0.648E-04
   1.019  0.692E-04  0.692E-04
   1.029  0.736E-04  0.736E-04
   1.039  0.780E-04  0.780E-04
   1.049  0.824E-04  0.824E-04
   1.059  0.868E-04  0.868E-04
   1.069  0.861E-04  0.861E-04
   1.079  0.905E-04  0.905E-04
   1.089  0.949E-04  0.949E-04
   1.099  0.993E-04  0.993E-04
   1.109  0.104E-03  0.104E-03
   1.119  0.108E-03  0.108E-03
   1.129  0.113E-03  0.113E-03
   1.139  0.117E-03  0.117E-03
   1.149  0.121E-03  0.121E-03
   1.159  0.126E-03  0.126E-03
   1.169  0.130E-03  0.130E-03
   1.179  0.127E-03  0.127E-03
   1.189  0.131E-03  0.131E-03
   1.199  0.135E-03  0.135E-03
   1.209  0.139E-03  0.139E-03
   1.219  0.143E-03  0.143E-03
   1.229  0.147E-03  0.147E-03
   1.239  0.150E-03  0.150E-03
   1.249  0.154E-03  0.154E-03
   1.259  0.158E-03  0.158E-03
   1.269  0.162E-03  0.162E-03
   1.279  0.166E-03  0.166E-03
   1.289  0.170E-03  0.170E-03
   1.299  0.164E-03  0.164E-03
   1.309  0.167E-03  0.167E-03
   1.319  0.170E-03  0.170E-03
   1.329  0.173E-03  0.173E-03
   1.339  0.176E-03  0.176E-03
   1.349  0.179E-03  0.179E-03
   1.359  0.190E-03  0.190E-03
   1.369  0.200E-03  0.200E-03
   1.379  0.210E-03  0.210E-03
   1.389  0.220E-03  0.220E-03
   1.399  0.230E-03  0.230E-03
   1.409  0.241E-03  0.241E-03
   1.419  0.241E-03  0.241E-03
   1.429  0.250E-03  0.250E-03
   1.439  0.259E-03  0.259E-03
   1.449  0.268E-03  0.268E-03
   1.459  0.277E-03  0.277E-03
   1.469  0.286E-03  0.286E-03
   1.479  0.295E-03  0.295E-03
   1.489  0.304E-03  0.304E-03
   1.499  0.313E-03  0.313E-03
   1.509  0.323E-03  0.323E-03
   1.519  0.332E-03  0.332E-03
   1.529  0.341E-03  0.341E-03
   1.539  0.350E-03  0.350E-03
   1.549  0.843E-09  0.843E-09
   1.559  0.909E-09  0.909E-09
   1.569  0.976E-09  0.976E-09
   1.579  0.104E-08  0.104E-08
   1.589  0.103E-08  0.103E-08
   1.599  0.101E-08  0.101E-08
   1.609  0.989E-09  0.989E-09
   1.619  0.967E-09  0.967E-09
   1.629  0.945E-09  0.945E-09
   1.639  0.922E-09  0.922E-09
   1.649  0.900E-09  0.900E-09
   1.659  0.124E-08  0.124E-08
   1.669  0.102E-08  0.102E-08
   1.679  0.351E-02  0.351E-02
   1.689  0.204E-03  0.204E-03
   1.699  0.203E-03  0.203E-03
   1.709  0.203E-03  0.203E-03
   1.719  0.203E-03  0.203E-03
   1.729  0.203E-03  0.203E-03
   1.739  0.203E-03  0.203E-03
   1.749  0.202E-03  0.202E-03
   1.759  0.202E-03  0.202E-03
   1.769  0.202E-03  0.202E-03
   1.779  0.202E-03  0.202E-03
   1.789  0.201E-03  0.201E-03
   1.799  0.201E-03  0.201E-03
   1.809  0.201E-03  0.201E-03
   1.819  0.201E-03  0.201E-03
   1.829  0.191E-03  0.191E-03
   1.839  0.190E-03  0.190E-03
   1.849  0.189E-03  0.189E-03
   1.859  0.188E-03  0.188E-03
   1.869  0.187E-03  0.187E-03
   1.879  0.186E-03  0.186E-03
   1.889  0.185E-03  0.185E-03
   1.899  0.184E-03  0.184E-03
   1.909  0.183E-03  0.183E-03
   1.919  0.182E-03  0.182E-03
   1.929  0.181E-03  0.181E-03
   1.939  0.179E-03  0.179E-03
   1.949  0.178E-03  0.178E-03
   1.959  0.177E-03  0.177E-03
   1.969  0.169E-03  0.169E-03
   1.979  0.168E-03  0.168E-03
   1.989  0.166E-03  0.166E-03
   1.999  0.164E-03  0.164E-03
   2.009  0.162E-03  0.162E-03
   2.019  0.161E-03  0.161E-03
   2.029  0.159E-03  0.159E-03
   2.039  0.157E-03  0.157E-03
   2.049  0.156E-03  0.156E-03
   2.059  0.154E-03  0.154E-03
   2.069  0.152E-03  0.152E-03
   2.079  0.151E-03  0.151E-03
   2.089  0.149E-03  0.149E-03
   2.099  0.147E-03  0.147E-03
   2.109  0.146E-03  0.146E-03
   2.119  0.144E-03  0.144E-03
   2.129  0.137E-03  0.137E-03
   2.139  0.135E-03  0.135E-03
   2.149  0.132E-03  0.132E-03
   2.159  0.130E-03  0.130E-03
   2.169  0.128E-03  0.128E-03
   2.179  0.126E-03  0.126E-03
   2.189  0.124E-03  0.124E-03
   2.199  0.122E-03  0.122E-03
   2.209  0.120E-03  0.120E-03
   2.219  0.118E-03  0.118E-03
   2.229  0.116E-03  0.116E-03
   2.239  0.114E-03  0.114E-03
   2.249  0.112E-03  0.112E-03
   2.259  0.110E-03  0.110E-03
   2.269  0.108E-03  0.108E-03
   2.279  0.106E-03  0.106E-03
   2.289  0.100E-03  0.100E-03
   2.299  0.979E-04  0.979E-04
   2.309  0.958E-04  0.958E-04
   2.319  0.937E-04  0.937E-04
   2.329  0.916E-04  0.916E-04
   2.339  0.895E-04  0.895E-04
   2.349  0.874E-04  0.874E-04
   2.359  0.853E-04  0.853E-04
   2.369  0.831E-04  0.831E-04
   2.379  0.810E-04  0.810E-04
   2.389  0.789E-04  0.789E-04
   2.399  0.768E-04  0.768E-04
   2.409  0.747E-04  0.747E-04
   2.419  0.726E-04  0.726E-04
   2.429  0.705E-04  0.705E-04
   2.439  0.683E-04  0.683E-04
   2.449  0.641E-04  0.641E-04
   2.459  0.622E-04  0.622E-04
   2.469  0.603E-04  0.603E-04
   2.479  0.585E-04  0.585E-04
   2.489  0.566E-04  0.566E-04
   2.499  0.547E-04  0.547E-04
   2.509  0.529E-04  0.529E-04
   2.519  0.510E-04  0.510E-04
   2.529  0.491E-04  0.491E-04
   2.539  0.472E-04  0.472E-04
   2.549  0.454E-04  0.454E-04
   2.559  0.435E-04  0.435E-04
   2.569  0.416E-04  0.416E-04
   2.579  0.398E-04  0.398E-04
   2.589  0.379E-04  0.379E-04
   2.599  0.360E-04  0.360E-04
   2.609  0.342E-04  0.342E-04
   2.619  0.313E-04  0.313E-04
   2.629  0.300E-04  0.300E-04
   2.639  0.287E-04  0.287E-04
   2.649  0.274E-04  0.274E-04
   2.659  0.261E-04  0.261E-04
   2.669  0.248E-04  0.248E-04
   2.679  0.235E-04  0.235E-04
   2.689  0.221E-04  0.221E-04
   2.699  0.208E-04  0.208E-04
   2.709  0.195E-04  0.195E-04
   2.719  0.182E-04  0.182E-04
   2.729  0.169E-04  0.169E-04
   2.739  0.156E-04  0.156E-04
   2.749  0.142E-04  0.142E-04
   2.759  0.129E-04  0.129E-04
   2.769  0.116E-04  0.116E-04
   2.779  0.103E-04  0.103E-04
   2.789  0.899E-05  0.899E-05
   2.799  0.784E-05  0.784E-05
   2.809  0.740E-05  0.740E-05
   2.819  0.697E-05  0.697E-05
   2.829  0.653E-05  0.653E-05
   2.839  0.609E-05  0.609E-05
   2.849  0.566E-05  0.566E-05
   2.859  0.522E-05  0.522E-05
   2.869  0.478E-05  0.478E-05
   2.879  0.434E-05  0.434E-05
   2.889  0.391E-05  0.391E-05
   2.899  0.347E-05  0.347E-05
   2.909  0.303E-05  0.303E-05
   2.919  0.260E-05  0.260E-05
   2.929  0.216E-05  0.216E-05
   2.939  0.172E-05  0.172E-05
   2.949  0.128E-05  0.128E-05
   2.959  0.847E-06  0.847E-06
   2.969  0.410E-06  0.410E-06
   2.979  0.275E-06  0.275E-06
   2.989  0.104E-05  0.104E-05
   2.999  0.181E-05  0.181E-05
   3.009  0.257E-05  0.257E-05
   3.019  0.334E-05  0.334E-05
   3.029  0.410E-05  0.410E-05
   3.039  0.487E-05  0.487E-05
   3.049  0.563E-05  0.563E-05
   3.059  0.640E-05  0.640E-05
   3.069  0.716E-05  0.716E-05
   3.079  0.793E-05  0.793E-05
   3.089  0.869E-05  0.869E-05
   3.099  0.946E-05  0.946E-05
   3.109  0.102E-04  0.102E-04
   3.119  0.110E-04  0.110E-04
   3.129  0.118E-04  0.118E-04
   3.139  0.125E-04  0.125E-04
   3.149  0.133E-04  0.133E-04
   3.159  0.140E-04  0.140E-04
   3.169  0.152E-04  0.152E-04
   3.179  0.175E-04  0.175E-04
   3.189  0.198E-04  0.198E-04
   3.199  0.221E-04  0.221E-04
   3.209  0.244E-04  0.244E-04
   3.219  0.267E-04  0.267E-04
   3.229  0.290E-04  0.290E-04
   3.239  0.313E-04  0.313E-04
   3.249  0.336E-04  0.336E-04
   3.259  0.359E-04  0.359E-04
   3.269  0.382E-04  0.382E-04
   3.279  0.405E-04  0.405E-04
   3.289  0.428E-04  0.428E-04
   3.299  0.451E-04  0.451E-04
   3.309  0.474E-04  0.474E-04
   3.319  0.497E-04  0.497E-04
   3.329  0.520E-04  0.520E-04
   3.339  0.543E-04  0.543E-04
   3.349  0.566E-04  0.566E-04
   3.359  0.580E-04  0.580E-04
   3.369  0.622E-04  0.622E-04
   3.379  0.664E-04  0.664E-04
   3.389  0.706E-04  0.706E-04
   3.399  0.748E-04  0.748E-04
   3.409  0.790E-04  0.790E-04
   3.419  0.832E-04  0.832E-04
   3.429  0.874E-04  0.874E-04
   3.439  0.915E-04  0.915E-04
   3.449  0.957E-04  0.957E-04
   3.459  0.999E-04  0.999E-04
   3.469  0.104E-03  0.104E-03
   3.479  0.108E-03  0.108E-03
   3.489  0.112E-03  0.112E-03
   3.499  0.117E-03  0.117E-03
   3.509  0.121E-03  0.121E-03
   3.519  0.125E-03  0.125E-03
   3.529  0.129E-03  0.129E-03
   3.539  0.133E-03  0.133E-03
   3.549  0.138E-03  0.138E-03
   3.559  0.140E-03  0.140E-03
   3.569  0.146E-03  0.146E-03
   3.579  0.153E-03  0.153E-03
   3.589  0.159E-03  0.159E-03
   3.599  0.166E-03  0.166E-03
   3.609  0.172E-03  0.172E-03
   3.619  0.179E-03  0.179E-03
   3.629  0.185E-03  0.185E-03
   3.639  0.192E-03  0.192E-03
   3.649  0.198E-03  0.198E-03
   3.659  0.204E-03  0.204E-03
   3.669  0.211E-03  0.211E-03
   3.679  0.217E-03  0.217E-03
   3.689  0.224E-03  0.224E-03
   3.699  0.230E-03  0.230E-03
   3.709  0.237E-03  0.237E-03
   3.719  0.243E-03  0.243E-03
   3.729  0.250E-03  0.250E-03
   3.739  0.256E-03  0.256E-03
   3.749  0.263E-03  0.263E-03
   3.759  0.265E-03  0.265E-03
   3.769  0.274E-03  0.274E-03
   3.779  0.283E-03  0.283E-03
   3.789  0.292E-03  0.292E-03
   3.799  0.301E-03  0.301E-03
   3.809  0.310E-03  0.310E-03
   3.819  0.319E-03  0.319E-03
   3.829  0.329E-03  0.329E-03
   3.839  0.338E-03  0.338E-03
   3.849  0.347E-03  0.347E-03
   3.859  0.356E-03  0.356E-03
   3.869  0.365E-03  0.365E-03
   3.879  0.374E-03  0.374E-03
   3.889  0.383E-03  0.383E-03
   3.899  0.393E-03  0.393E-03
   3.909  0.402E-03  0.402E-03
   3.919  0.411E-03  0.411E-03
   3.929  0.420E-03  0.420E-03
   3.939  0.429E-03  0.429E-03
   3.949  0.438E-03  0.438E-03
   3.959  0.447E-03  0.447E-03
   3.969  0.451E-03  0.451E-03
   3.979  0.463E-03  0.463E-03
   3.989  0.476E-03  0.476E-03
   3.999  0.488E-03  0.488E-03
   4.009  0.500E-03  0.500E-03
   4.019  0.513E-03  0.513E-03
   4.029  0.525E-03  0.525E-03
   4.039  0.538E-03  0.538E-03
   4.049  0.550E-03  0.550E-03
   4.059  0.562E-03  0.562E-03
   4.069  0.575E-03  0.575E-03
   4.079  0.587E-03  0.587E-03
   4.089  0.599E-03  0.599E-03
   4.099  0.612E-03  0.612E-03
   4.109  0.624E-03  0.624E-03
   4.119  0.636E-03  0.636E-03
   4.129  0.649E-03  0.649E-03
   4.139  0.661E-03  0.661E-03
   4.149  0.673E-03  0.673E-03
   4.159  0.686E-03  0.686E-03
   4.169  0.698E-03  0.698E-03
   4.179  0.703E-03  0.703E-03
   4.189  0.719E-03  0.719E-03
   4.199  0.735E-03  0.735E-03
   4.209  0.751E-03  0.751E-03
   4.219  0.768E-03  0.768E-03
   4.229  0.784E-03  0.784E-03
   4.239  0.800E-03  0.800E-03
   4.249  0.816E-03  0.816E-03
   4.259  0.832E-03  0.832E-03
   4.269  0.848E-03  0.848E-03
   4.279  0.864E-03  0.864E-03
   4.289  0.881E-03  0.881E-03
   4.299  0.897E-03  0.897E-03
   4.309  0.913E-03  0.913E-03
   4.319  0.929E-03  0.929E-03
   4.329  0.945E-03  0.945E-03
   4.339  0.961E-03  0.961E-03
   4.349  0.978E-03  0.978E-03
   4.359  0.994E-03  0.994E-03
   4.369  0.101E-02  0.101E-02
   4.379  0.103E-02  0.103E-02
   4.389  0.103E-02  0.103E-02
   4.399  0.105E-02  0.105E-02
   4.409  0.107E-02  0.107E-02
   4.419  0.109E-02  0.109E-02
   4.429  0.112E-02  0.112E-02
   4.439  0.114E-02  0.114E-02
   4.449  0.116E-02  0.116E-02
   4.459  0.118E-02  0.118E-02
   4.469  0.120E-02  0.120E-02
   4.479  0.122E-02  0.122E-02
   4.489  0.124E-02  0.124E-02
   4.499  0.126E-02  0.126E-02
   4.509  0.128E-02  0.128E-02
   4.519  0.130E-02  0.130E-02
   4.529  0.132E-02  0.132E-02
   4.539  0.134E-02  0.134E-02
   4.549  0.136E-02  0.136E-02
   4.559  0.139E-02  0.139E-02
   4.569  0.141E-02  0.141E-02
   4.579  0.143E-02  0.143E-02
   4.589  0.145E-02  0.145E-02
   4.599  0.147E-02  0.147E-02
   4.609  0.148E-02  0.148E-02
   4.619  0.151E-02  0.151E-02
   4.629  0.154E-02  0.154E-02
   4.639  0.156E-02  0.156E-02
   4.649  0.159E-02  0.159E-02
   4.659  0.162E-02  0.162E-02
   4.669  0.164E-02  0.164E-02
   4.679  0.167E-02  0.167E-02
   4.689  0.169E-02  0.169E-02
   4.699  0.172E-02  0.172E-02
   4.709  0.175E-02  0.175E-02
   4.719  0.177E-02  0.177E-02
   4.729  0.180E-02  0.180E-02
   4.739  0.183E-02  0.183E-02
   4.749  0.185E-02  0.185E-02
   4.759  0.188E-02  0.188E-02
   4.769  0.191E-02  0.191E-02
   4.779  0.193E-02  0.193E-02
   4.789  0.196E-02  0.196E-02
   4.799  0.199E-02  0.199E-02
   4.809  0.201E-02  0.201E-02
   4.819  0.203E-02  0.203E-02
   4.829  0.207E-02  0.207E-02
   4.839  0.210E-02  0.210E-02
   4.849  0.213E-02  0.213E-02
   4.859  0.217E-02  0.217E-02
   4.869  0.220E-02  0.220E-02
   4.879  0.223E-02  0.223E-02
   4.889  0.227E-02  0.227E-02
   4.899  0.230E-02  0.230E-02
   4.909  0.233E-02  0.233E-02
   4.919  0.237E-02  0.237E-02
   4.929  0.240E-02  0.240E-02
   4.939  0.244E-02  0.244E-02
   4.949  0.247E-02  0.247E-02
   4.959  0.250E-02  0.250E-02
   4.969  0.254E-02  0.254E-02
   4.979  0.257E-02  0.257E-02
   4.989  0.260E-02  0.260E-02
   4.999  0.264E-02  0.264E-02
   5.009  0.267E-02  0.267E-02
   5.019  0.270E-02  0.270E-02
   5.029  0.274E-02  0.274E-02
   5.039  0.270E-02  0.270E-02
   5.049  0.257E-02  0.257E-02
   5.059  0.245E-02  0.245E-02
   5.069  0.232E-02  0.232E-02
   5.079  0.219E-02  0.219E-02
   5.089  0.206E-02  0.206E-02
   5.099  0.194E-02  0.194E-02
   5.109  0.181E-02  0.181E-02
   5.119  0.168E-02  0.168E-02
   5.129  0.156E-02  0.156E-02
   5.139  0.143E-02  0.143E-02
   5.149  0.130E-02  0.130E-02
   5.159  0.118E-02  0.118E-02
   5.169  0.105E-02  0.105E-02
   5.179  0.923E-03  0.923E-03
   5.189  0.796E-03  0.796E-03
   5.199  0.669E-03  0.669E-03
   5.209  0.542E-03  0.542E-03
   5.219  0.415E-03  0.415E-03
   5.229  0.288E-03  0.288E-03
   5.239  0.161E-03  0.161E-03
   5.249  0.344E-04  0.344E-04
   5.259  0.736E-02  0.736E-02
   5.269  0.725E-02  0.725E-02
   5.279  0.713E-02  0.713E-02
   5.289  0.701E-02  0.701E-02
   5.299  0.689E-02  0.689E-02
   5.309  0.677E-02  0.677E-02
   5.319  0.666E-02  0.666E-02
   5.329  0.654E-02  0.654E-02
   5.339  0.642E-02  0.642E-02
   5.349  0.630E-02  0.630E-02
   5.359  0.619E-02  0.619E-02
   5.369  0.607E-02  0.607E-02
   5.379  0.595E-02  0.595E-02
   5.389  0.583E-02  0.583E-02
   5.399  0.572E-02  0.572E-02
   5.409  0.560E-02  0.560E-02
   5.419  0.548E-02  0.548E-02
   5.429  0.536E-02  0.536E-02
   5.439  0.525E-02  0.525E-02
   5.449  0.513E-02  0.513E-02
   5.459  0.501E-02  0.501E-02
   5.469  0.691E-01  0.691E-01
   5.479  0.119E-01  0.119E-01
   5.489  0.000E+00  0.000E+00
