# E (eV) pdos(E) 
-20.691  0.000E+00
-20.681  0.302E-01
-20.671  0.394E-01
-20.661  0.436E-01
-20.651  0.462E-01
-20.641  0.570E-01
-20.631  0.568E-01
-20.621  0.658E-01
-20.611  0.748E-01
-20.601  0.716E-01
-20.591  0.790E-01
-20.581  0.866E-01
-20.571  0.822E-01
-20.561  0.884E-01
-20.551  0.948E-01
-20.541  0.898E-01
-20.531  0.952E-01
-20.521  0.101E+00
-20.511  0.956E-01
-20.501  0.100E+00
-20.491  0.105E+00
-20.481  0.110E+00
-20.471  0.104E+00
-20.461  0.108E+00
-20.451  0.112E+00
-20.441  0.117E+00
-20.431  0.111E+00
-20.421  0.114E+00
-20.411  0.118E+00
-20.401  0.122E+00
-20.391  0.125E+00
-20.381  0.119E+00
-20.371  0.123E+00
-20.361  0.126E+00
-20.351  0.129E+00
-20.341  0.132E+00
-20.331  0.126E+00
-20.321  0.129E+00
-20.311  0.132E+00
-20.301  0.134E+00
-20.291  0.137E+00
-20.281  0.140E+00
-20.271  0.134E+00
-20.261  0.136E+00
-20.251  0.139E+00
-20.241  0.141E+00
-20.231  0.144E+00
-20.221  0.138E+00
-20.211  0.140E+00
-20.201  0.142E+00
-20.191  0.145E+00
-20.181  0.147E+00
-20.171  0.149E+00
-20.161  0.143E+00
-20.151  0.145E+00
-20.141  0.147E+00
-20.131  0.149E+00
-20.121  0.151E+00
-20.111  0.154E+00
-20.101  0.156E+00
-20.091  0.149E+00
-20.081  0.151E+00
-20.071  0.153E+00
-20.061  0.155E+00
-20.051  0.157E+00
-20.041  0.159E+00
-20.031  0.161E+00
-20.021  0.154E+00
-20.011  0.156E+00
-20.001  0.158E+00
-19.991  0.160E+00
-19.981  0.161E+00
-19.971  0.163E+00
-19.961  0.165E+00
-19.951  0.159E+00
-19.941  0.160E+00
-19.931  0.162E+00
-19.921  0.163E+00
-19.911  0.165E+00
-19.901  0.166E+00
-19.891  0.168E+00
-19.881  0.169E+00
-19.871  0.164E+00
-19.861  0.165E+00
-19.851  0.166E+00
-19.841  0.168E+00
-19.831  0.169E+00
-19.821  0.171E+00
-19.811  0.172E+00
-19.801  0.174E+00
-19.791  0.168E+00
-19.781  0.169E+00
-19.771  0.170E+00
-19.761  0.172E+00
-19.751  0.173E+00
-19.741  0.174E+00
-19.731  0.176E+00
-19.721  0.177E+00
-19.711  0.171E+00
-19.701  0.172E+00
-19.691  0.174E+00
-19.681  0.175E+00
-19.671  0.176E+00
-19.661  0.177E+00
-19.651  0.178E+00
-19.641  0.180E+00
-19.631  0.181E+00
-19.621  0.175E+00
-19.611  0.176E+00
-19.601  0.177E+00
-19.591  0.178E+00
-19.581  0.180E+00
-19.571  0.181E+00
-19.561  0.182E+00
-19.551  0.183E+00
-19.541  0.178E+00
-19.531  0.179E+00
-19.521  0.180E+00
-19.511  0.181E+00
-19.501  0.182E+00
-19.491  0.183E+00
-19.481  0.184E+00
-19.471  0.185E+00
-19.461  0.186E+00
-19.451  0.187E+00
-19.441  0.182E+00
-19.431  0.183E+00
-19.421  0.184E+00
-19.411  0.185E+00
-19.401  0.185E+00
-19.391  0.186E+00
-19.381  0.187E+00
-19.371  0.188E+00
-19.361  0.189E+00
-19.351  0.184E+00
-19.341  0.185E+00
-19.331  0.186E+00
-19.321  0.187E+00
-19.311  0.188E+00
-19.301  0.189E+00
-19.291  0.190E+00
-19.281  0.190E+00
-19.271  0.191E+00
-19.261  0.192E+00
-19.251  0.187E+00
-19.241  0.188E+00
-19.231  0.189E+00
-19.221  0.190E+00
-19.211  0.191E+00
-19.201  0.192E+00
-19.191  0.192E+00
-19.181  0.193E+00
-19.171  0.194E+00
-19.161  0.195E+00
-19.151  0.190E+00
-19.141  0.191E+00
-19.131  0.192E+00
-19.121  0.192E+00
-19.111  0.193E+00
-19.101  0.194E+00
-19.091  0.195E+00
-19.081  0.196E+00
-19.071  0.196E+00
-19.061  0.197E+00
-19.051  0.198E+00
-19.041  0.193E+00
-19.031  0.194E+00
-19.021  0.195E+00
-19.011  0.196E+00
-19.001  0.196E+00
-18.991  0.197E+00
-18.981  0.198E+00
-18.971  0.199E+00
-18.961  0.199E+00
-18.951  0.200E+00
-18.941  0.200E+00
-18.931  0.196E+00
-18.921  0.197E+00
-18.911  0.198E+00
-18.901  0.198E+00
-18.891  0.199E+00
-18.881  0.200E+00
-18.871  0.200E+00
-18.861  0.202E+00
-18.851  0.202E+00
-18.841  0.202E+00
-18.831  0.204E+00
-18.821  0.199E+00
-18.811  0.200E+00
-18.801  0.200E+00
-18.791  0.200E+00
-18.781  0.202E+00
-18.771  0.202E+00
-18.761  0.202E+00
-18.751  0.204E+00
-18.741  0.204E+00
-18.731  0.204E+00
-18.721  0.206E+00
-18.711  0.202E+00
-18.701  0.202E+00
-18.691  0.202E+00
-18.681  0.204E+00
-18.671  0.204E+00
-18.661  0.204E+00
-18.651  0.205E+00
-18.641  0.206E+00
-18.631  0.206E+00
-18.621  0.206E+00
-18.611  0.208E+00
-18.601  0.208E+00
-18.591  0.204E+00
-18.581  0.204E+00
-18.571  0.206E+00
-18.561  0.206E+00
-18.551  0.206E+00
-18.541  0.207E+00
-18.531  0.208E+00
-18.521  0.208E+00
-18.511  0.208E+00
-18.501  0.210E+00
-18.491  0.210E+00
-18.481  0.206E+00
-18.471  0.207E+00
-18.461  0.208E+00
-18.451  0.208E+00
-18.441  0.208E+00
-18.431  0.209E+00
-18.421  0.210E+00
-18.411  0.210E+00
-18.401  0.210E+00
-18.391  0.212E+00
-18.381  0.212E+00
-18.371  0.212E+00
-18.361  0.209E+00
-18.351  0.210E+00
-18.341  0.210E+00
-18.331  0.210E+00
-18.321  0.211E+00
-18.311  0.212E+00
-18.301  0.212E+00
-18.291  0.212E+00
-18.281  0.213E+00
-18.271  0.214E+00
-18.261  0.214E+00
-18.251  0.214E+00
-18.241  0.215E+00
-18.231  0.212E+00
-18.221  0.212E+00
-18.211  0.212E+00
-18.201  0.214E+00
-18.191  0.214E+00
-18.181  0.214E+00
-18.171  0.214E+00
-18.161  0.215E+00
-18.151  0.216E+00
-18.141  0.216E+00
-18.131  0.216E+00
-18.121  0.217E+00
-18.111  0.214E+00
-18.101  0.214E+00
-18.091  0.215E+00
-18.081  0.216E+00
-18.071  0.216E+00
-18.061  0.216E+00
-18.051  0.217E+00
-18.041  0.217E+00
-18.031  0.218E+00
-18.021  0.218E+00
-18.011  0.219E+00
-18.001  0.219E+00
-17.991  0.220E+00
-17.981  0.217E+00
-17.971  0.217E+00
-17.961  0.218E+00
-17.951  0.218E+00
-17.941  0.219E+00
-17.931  0.219E+00
-17.921  0.219E+00
-17.911  0.220E+00
-17.901  0.221E+00
-17.891  0.221E+00
-17.881  0.221E+00
-17.871  0.221E+00
-17.861  0.222E+00
-17.851  0.220E+00
-17.841  0.221E+00
-17.831  0.221E+00
-17.821  0.222E+00
-17.811  0.222E+00
-17.801  0.222E+00
-17.791  0.223E+00
-17.781  0.223E+00
-17.771  0.224E+00
-17.761  0.225E+00
-17.751  0.224E+00
-17.741  0.225E+00
-17.731  0.225E+00
-17.721  0.223E+00
-17.711  0.223E+00
-17.701  0.224E+00
-17.691  0.224E+00
-17.681  0.225E+00
-17.671  0.225E+00
-17.661  0.226E+00
-17.651  0.226E+00
-17.641  0.226E+00
-17.631  0.227E+00
-17.621  0.227E+00
-17.611  0.228E+00
-17.601  0.228E+00
-17.591  0.225E+00
-17.581  0.225E+00
-17.571  0.225E+00
-17.561  0.226E+00
-17.551  0.227E+00
-17.541  0.227E+00
-17.531  0.227E+00
-17.521  0.228E+00
-17.511  0.228E+00
-17.501  0.228E+00
-17.491  0.229E+00
-17.481  0.229E+00
-17.471  0.230E+00
-17.461  0.230E+00
-17.451  0.228E+00
-17.441  0.228E+00
-17.431  0.229E+00
-17.421  0.229E+00
-17.411  0.230E+00
-17.401  0.230E+00
-17.391  0.230E+00
-17.381  0.231E+00
-17.371  0.231E+00
-17.361  0.232E+00
-17.351  0.232E+00
-17.341  0.232E+00
-17.331  0.232E+00
-17.321  0.231E+00
-17.311  0.231E+00
-17.301  0.232E+00
-17.291  0.232E+00
-17.281  0.232E+00
-17.271  0.232E+00
-17.261  0.233E+00
-17.251  0.234E+00
-17.241  0.234E+00
-17.231  0.234E+00
-17.221  0.234E+00
-17.211  0.235E+00
-17.201  0.235E+00
-17.191  0.236E+00
-17.181  0.234E+00
-17.171  0.234E+00
-17.161  0.235E+00
-17.151  0.235E+00
-17.141  0.236E+00
-17.131  0.236E+00
-17.121  0.236E+00
-17.111  0.236E+00
-17.101  0.237E+00
-17.091  0.238E+00
-17.081  0.238E+00
-17.071  0.238E+00
-17.061  0.238E+00
-17.051  0.238E+00
-17.041  0.238E+00
-17.031  0.238E+00
-17.021  0.238E+00
-17.011  0.238E+00
-17.001  0.239E+00
-16.991  0.240E+00
-16.981  0.240E+00
-16.971  0.240E+00
-16.961  0.240E+00
-16.951  0.240E+00
-16.941  0.241E+00
-16.931  0.242E+00
-16.921  0.242E+00
-16.911  0.242E+00
-16.901  0.241E+00
-16.891  0.242E+00
-16.881  0.242E+00
-16.871  0.242E+00
-16.861  0.242E+00
-16.851  0.242E+00
-16.841  0.243E+00
-16.831  0.244E+00
-16.821  0.244E+00
-16.811  0.244E+00
-16.801  0.244E+00
-16.791  0.244E+00
-16.781  0.246E+00
-16.771  0.246E+00
-16.761  0.245E+00
-16.751  0.246E+00
-16.741  0.246E+00
-16.731  0.246E+00
-16.721  0.246E+00
-16.711  0.246E+00
-16.701  0.246E+00
-16.691  0.248E+00
-16.681  0.248E+00
-16.671  0.248E+00
-16.661  0.248E+00
-16.651  0.248E+00
-16.641  0.248E+00
-16.631  0.250E+00
-16.621  0.249E+00
-16.611  0.250E+00
-16.601  0.250E+00
-16.591  0.250E+00
-16.581  0.250E+00
-16.571  0.250E+00
-16.561  0.250E+00
-16.551  0.252E+00
-16.541  0.252E+00
-16.531  0.252E+00
-16.521  0.252E+00
-16.511  0.252E+00
-16.501  0.252E+00
-16.491  0.253E+00
-16.481  0.254E+00
-16.471  0.254E+00
-16.461  0.254E+00
-16.451  0.254E+00
-16.441  0.254E+00
-16.431  0.254E+00
-16.421  0.256E+00
-16.411  0.256E+00
-16.401  0.256E+00
-16.391  0.256E+00
-16.381  0.256E+00
-16.371  0.256E+00
-16.361  0.257E+00
-16.351  0.258E+00
-16.341  0.258E+00
-16.331  0.258E+00
-16.321  0.258E+00
-16.311  0.258E+00
-16.301  0.260E+00
-16.291  0.260E+00
-16.281  0.260E+00
-16.271  0.260E+00
-16.261  0.260E+00
-16.251  0.260E+00
-16.241  0.261E+00
-16.231  0.262E+00
-16.221  0.262E+00
-16.211  0.262E+00
-16.201  0.262E+00
-16.191  0.264E+00
-16.181  0.264E+00
-16.171  0.264E+00
-16.161  0.264E+00
-16.151  0.264E+00
-16.141  0.264E+00
-16.131  0.265E+00
-16.121  0.266E+00
-16.111  0.266E+00
-16.101  0.266E+00
-16.091  0.266E+00
-16.081  0.266E+00
-16.071  0.266E+00
-16.061  0.268E+00
-16.051  0.268E+00
-16.041  0.269E+00
-16.031  0.270E+00
-16.021  0.270E+00
-16.011  0.270E+00
-16.001  0.270E+00
-15.991  0.270E+00
-15.981  0.270E+00
-15.971  0.272E+00
-15.961  0.272E+00
-15.951  0.272E+00
-15.941  0.272E+00
-15.931  0.272E+00
-15.921  0.274E+00
-15.911  0.274E+00
-15.901  0.275E+00
-15.891  0.276E+00
-15.881  0.276E+00
-15.871  0.276E+00
-15.861  0.276E+00
-15.851  0.276E+00
-15.841  0.276E+00
-15.831  0.278E+00
-15.821  0.278E+00
-15.811  0.278E+00
-15.801  0.278E+00
-15.791  0.280E+00
-15.781  0.280E+00
-15.771  0.282E+00
-15.761  0.282E+00
-15.751  0.282E+00
-15.741  0.282E+00
-15.731  0.282E+00
-15.721  0.282E+00
-15.711  0.283E+00
-15.701  0.284E+00
-15.691  0.284E+00
-15.681  0.284E+00
-15.671  0.284E+00
-15.661  0.284E+00
-15.651  0.288E+00
-15.641  0.288E+00
-15.631  0.288E+00
-15.621  0.288E+00
-15.611  0.289E+00
-15.601  0.290E+00
-15.591  0.290E+00
-15.581  0.290E+00
-15.571  0.290E+00
-15.561  0.290E+00
-15.551  0.290E+00
-15.541  0.292E+00
-15.531  0.292E+00
-15.521  0.292E+00
-15.511  0.296E+00
-15.501  0.296E+00
-15.491  0.296E+00
-15.481  0.296E+00
-15.471  0.297E+00
-15.461  0.298E+00
-15.451  0.298E+00
-15.441  0.298E+00
-15.431  0.298E+00
-15.421  0.298E+00
-15.411  0.298E+00
-15.401  0.300E+00
-15.391  0.300E+00
-15.381  0.304E+00
-15.371  0.304E+00
-15.361  0.304E+00
-15.351  0.306E+00
-15.341  0.306E+00
-15.331  0.306E+00
-15.321  0.306E+00
-15.311  0.306E+00
-15.301  0.306E+00
-15.291  0.308E+00
-15.281  0.308E+00
-15.271  0.308E+00
-15.261  0.308E+00
-15.251  0.314E+00
-15.241  0.314E+00
-15.231  0.314E+00
-15.221  0.314E+00
-15.211  0.315E+00
-15.201  0.316E+00
-15.191  0.316E+00
-15.181  0.316E+00
-15.171  0.316E+00
-15.161  0.316E+00
-15.151  0.317E+00
-15.141  0.318E+00
-15.131  0.318E+00
-15.121  0.318E+00
-15.111  0.324E+00
-15.101  0.325E+00
-15.091  0.326E+00
-15.081  0.326E+00
-15.071  0.326E+00
-15.061  0.326E+00
-15.051  0.326E+00
-15.041  0.327E+00
-15.031  0.328E+00
-15.021  0.328E+00
-15.011  0.328E+00
-15.001  0.328E+00
-14.991  0.336E+00
-14.981  0.336E+00
-14.971  0.337E+00
-14.961  0.338E+00
-14.951  0.338E+00
-14.941  0.338E+00
-14.931  0.338E+00
-14.921  0.338E+00
-14.911  0.340E+00
-14.901  0.340E+00
-14.891  0.340E+00
-14.881  0.340E+00
-14.871  0.340E+00
-14.861  0.350E+00
-14.851  0.350E+00
-14.841  0.350E+00
-14.831  0.350E+00
-14.821  0.352E+00
-14.811  0.352E+00
-14.801  0.352E+00
-14.791  0.352E+00
-14.781  0.352E+00
-14.771  0.353E+00
-14.761  0.354E+00
-14.751  0.354E+00
-14.741  0.364E+00
-14.731  0.366E+00
-14.721  0.366E+00
-14.711  0.366E+00
-14.701  0.366E+00
-14.691  0.366E+00
-14.681  0.367E+00
-14.671  0.368E+00
-14.661  0.368E+00
-14.651  0.368E+00
-14.641  0.368E+00
-14.631  0.368E+00
-14.621  0.382E+00
-14.611  0.382E+00
-14.601  0.382E+00
-14.591  0.382E+00
-14.581  0.384E+00
-14.571  0.384E+00
-14.561  0.384E+00
-14.551  0.384E+00
-14.541  0.384E+00
-14.531  0.386E+00
-14.521  0.386E+00
-14.511  0.400E+00
-14.501  0.402E+00
-14.491  0.402E+00
-14.481  0.402E+00
-14.471  0.402E+00
-14.461  0.403E+00
-14.451  0.404E+00
-14.441  0.404E+00
-14.431  0.404E+00
-14.421  0.404E+00
-14.411  0.405E+00
-14.401  0.424E+00
-14.391  0.424E+00
-14.381  0.424E+00
-14.371  0.424E+00
-14.361  0.424E+00
-14.351  0.426E+00
-14.341  0.426E+00
-14.331  0.426E+00
-14.321  0.426E+00
-14.311  0.427E+00
-14.301  0.428E+00
-14.291  0.448E+00
-14.281  0.450E+00
-14.271  0.450E+00
-14.261  0.450E+00
-14.251  0.450E+00
-14.241  0.452E+00
-14.231  0.452E+00
-14.221  0.452E+00
-14.211  0.452E+00
-14.201  0.453E+00
-14.191  0.478E+00
-14.181  0.480E+00
-14.171  0.480E+00
-14.161  0.480E+00
-14.151  0.480E+00
-14.141  0.482E+00
-14.131  0.482E+00
-14.121  0.482E+00
-14.111  0.482E+00
-14.101  0.514E+00
-14.091  0.514E+00
-14.081  0.514E+00
-14.071  0.516E+00
-14.061  0.516E+00
-14.051  0.516E+00
-14.041  0.517E+00
-14.031  0.518E+00
-14.021  0.518E+00
-14.011  0.556E+00
-14.001  0.556E+00
-13.991  0.556E+00
-13.981  0.558E+00
-13.971  0.558E+00
-13.961  0.558E+00
-13.951  0.560E+00
-13.941  0.560E+00
-13.931  0.606E+00
-13.921  0.608E+00
-13.911  0.608E+00
-13.901  0.608E+00
-13.891  0.610E+00
-13.881  0.610E+00
-13.871  0.610E+00
-13.861  0.610E+00
-13.851  0.670E+00
-13.841  0.670E+00
-13.831  0.670E+00
-13.821  0.672E+00
-13.811  0.672E+00
-13.801  0.672E+00
-13.791  0.674E+00
-13.781  0.748E+00
-13.771  0.750E+00
-13.761  0.750E+00
-13.751  0.750E+00
-13.741  0.752E+00
-13.731  0.752E+00
-13.721  0.752E+00
-13.711  0.851E+00
-13.701  0.852E+00
-13.691  0.852E+00
-13.681  0.854E+00
-13.671  0.854E+00
-13.661  0.988E+00
-13.651  0.988E+00
-13.641  0.990E+00
-13.631  0.990E+00
-13.621  0.992E+00
-13.611  0.118E+01
-13.601  0.118E+01
-13.591  0.118E+01
-13.581  0.118E+01
-13.571  0.147E+01
-13.561  0.147E+01
-13.551  0.147E+01
-13.541  0.196E+01
-13.531  0.196E+01
-13.521  0.196E+01
-13.511  0.292E+01
-13.501  0.292E+01
-13.491  0.000E+00
-13.481  0.000E+00
-13.471  0.000E+00
-13.461  0.000E+00
-13.451  0.000E+00
-13.441  0.000E+00
-13.431  0.000E+00
-13.421  0.000E+00
-13.411  0.000E+00
-13.401  0.000E+00
-13.391  0.000E+00
-13.381  0.000E+00
-13.371  0.000E+00
-13.361  0.000E+00
-13.351  0.000E+00
-13.341  0.000E+00
-13.331  0.000E+00
-13.321  0.000E+00
-13.311  0.000E+00
-13.301  0.000E+00
-13.291  0.000E+00
-13.281  0.000E+00
-13.271  0.000E+00
-13.261  0.000E+00
-13.251  0.000E+00
-13.241  0.000E+00
-13.231  0.000E+00
-13.221  0.000E+00
-13.211  0.000E+00
-13.201  0.000E+00
-13.191  0.000E+00
-13.181  0.000E+00
-13.171  0.000E+00
-13.161  0.000E+00
-13.151  0.000E+00
-13.141  0.000E+00
-13.131  0.000E+00
-13.121  0.000E+00
-13.111  0.000E+00
-13.101  0.000E+00
-13.091  0.000E+00
-13.081  0.000E+00
-13.071  0.000E+00
-13.061  0.000E+00
-13.051  0.000E+00
-13.041  0.000E+00
-13.031  0.000E+00
-13.021  0.000E+00
-13.011  0.000E+00
-13.001  0.000E+00
-12.991  0.000E+00
-12.981  0.000E+00
-12.971  0.000E+00
-12.961  0.000E+00
-12.951  0.000E+00
-12.941  0.000E+00
-12.931  0.000E+00
-12.921  0.000E+00
-12.911  0.000E+00
-12.901  0.000E+00
-12.891  0.000E+00
-12.881  0.000E+00
-12.871  0.000E+00
-12.861  0.000E+00
-12.851  0.000E+00
-12.841  0.000E+00
-12.831  0.000E+00
-12.821  0.000E+00
-12.811  0.000E+00
-12.801  0.000E+00
-12.791  0.000E+00
-12.781  0.000E+00
-12.771  0.000E+00
-12.761  0.000E+00
-12.751  0.000E+00
-12.741  0.000E+00
-12.731  0.000E+00
-12.721  0.000E+00
-12.711  0.000E+00
-12.701  0.000E+00
-12.691  0.000E+00
-12.681  0.000E+00
-12.671  0.000E+00
-12.661  0.000E+00
-12.651  0.000E+00
-12.641  0.000E+00
-12.631  0.000E+00
-12.621  0.000E+00
-12.611  0.000E+00
-12.601  0.000E+00
-12.591  0.000E+00
-12.581  0.000E+00
-12.571  0.000E+00
-12.561  0.000E+00
-12.551  0.000E+00
-12.541  0.000E+00
-12.531  0.000E+00
-12.521  0.000E+00
-12.511  0.000E+00
-12.501  0.000E+00
-12.491  0.000E+00
-12.481  0.000E+00
-12.471  0.000E+00
-12.461  0.000E+00
-12.451  0.000E+00
-12.441  0.000E+00
-12.431  0.000E+00
-12.421  0.000E+00
-12.411  0.000E+00
-12.401  0.000E+00
-12.391  0.000E+00
-12.381  0.000E+00
-12.371  0.000E+00
-12.361  0.000E+00
-12.351  0.000E+00
-12.341  0.000E+00
-12.331  0.000E+00
-12.321  0.000E+00
-12.311  0.000E+00
-12.301  0.000E+00
-12.291  0.000E+00
-12.281  0.000E+00
-12.271  0.000E+00
-12.261  0.000E+00
-12.251  0.000E+00
-12.241  0.000E+00
-12.231  0.000E+00
-12.221  0.000E+00
-12.211  0.000E+00
-12.201  0.000E+00
-12.191  0.000E+00
-12.181  0.000E+00
-12.171  0.000E+00
-12.161  0.000E+00
-12.151  0.000E+00
-12.141  0.000E+00
-12.131  0.000E+00
-12.121  0.000E+00
-12.111  0.000E+00
-12.101  0.000E+00
-12.091  0.000E+00
-12.081  0.000E+00
-12.071  0.000E+00
-12.061  0.000E+00
-12.051  0.000E+00
-12.041  0.000E+00
-12.031  0.000E+00
-12.021  0.000E+00
-12.011  0.000E+00
-12.001  0.000E+00
-11.991  0.000E+00
-11.981  0.000E+00
-11.971  0.000E+00
-11.961  0.000E+00
-11.951  0.000E+00
-11.941  0.000E+00
-11.931  0.000E+00
-11.921  0.000E+00
-11.911  0.000E+00
-11.901  0.000E+00
-11.891  0.000E+00
-11.881  0.000E+00
-11.871  0.000E+00
-11.861  0.000E+00
-11.851  0.000E+00
-11.841  0.000E+00
-11.831  0.000E+00
-11.821  0.000E+00
-11.811  0.000E+00
-11.801  0.000E+00
-11.791  0.000E+00
-11.781  0.000E+00
-11.771  0.000E+00
-11.761  0.000E+00
-11.751  0.000E+00
-11.741  0.000E+00
-11.731  0.000E+00
-11.721  0.000E+00
-11.711  0.000E+00
-11.701  0.000E+00
-11.691  0.000E+00
-11.681  0.000E+00
-11.671  0.000E+00
-11.661  0.000E+00
-11.651  0.000E+00
-11.641  0.000E+00
-11.631  0.000E+00
-11.621  0.000E+00
-11.611  0.000E+00
-11.601  0.000E+00
-11.591  0.000E+00
-11.581  0.000E+00
-11.571  0.000E+00
-11.561  0.000E+00
-11.551  0.000E+00
-11.541  0.000E+00
-11.531  0.000E+00
-11.521  0.000E+00
-11.511  0.000E+00
-11.501  0.000E+00
-11.491  0.000E+00
-11.481  0.000E+00
-11.471  0.000E+00
-11.461  0.000E+00
-11.451  0.000E+00
-11.441  0.000E+00
-11.431  0.000E+00
-11.421  0.000E+00
-11.411  0.000E+00
-11.401  0.000E+00
-11.391  0.000E+00
-11.381  0.000E+00
-11.371  0.000E+00
-11.361  0.000E+00
-11.351  0.000E+00
-11.341  0.000E+00
-11.331  0.000E+00
-11.321  0.000E+00
-11.311  0.000E+00
-11.301  0.000E+00
-11.291  0.000E+00
-11.281  0.000E+00
-11.271  0.000E+00
-11.261  0.000E+00
-11.251  0.000E+00
-11.241  0.000E+00
-11.231  0.000E+00
-11.221  0.000E+00
-11.211  0.000E+00
-11.201  0.000E+00
-11.191  0.000E+00
-11.181  0.000E+00
-11.171  0.000E+00
-11.161  0.000E+00
-11.151  0.000E+00
-11.141  0.000E+00
-11.131  0.000E+00
-11.121  0.000E+00
-11.111  0.000E+00
-11.101  0.000E+00
-11.091  0.000E+00
-11.081  0.000E+00
-11.071  0.000E+00
-11.061  0.000E+00
-11.051  0.000E+00
-11.041  0.000E+00
-11.031  0.000E+00
-11.021  0.000E+00
-11.011  0.000E+00
-11.001  0.000E+00
-10.991  0.000E+00
-10.981  0.000E+00
-10.971  0.000E+00
-10.961  0.000E+00
-10.951  0.000E+00
-10.941  0.000E+00
-10.931  0.000E+00
-10.921  0.000E+00
-10.911  0.000E+00
-10.901  0.000E+00
-10.891  0.000E+00
-10.881  0.000E+00
-10.871  0.000E+00
-10.861  0.000E+00
-10.851  0.000E+00
-10.841  0.000E+00
-10.831  0.000E+00
-10.821  0.000E+00
-10.811  0.000E+00
-10.801  0.000E+00
-10.791  0.000E+00
-10.781  0.000E+00
-10.771  0.000E+00
-10.761  0.000E+00
-10.751  0.000E+00
-10.741  0.000E+00
-10.731  0.000E+00
-10.721  0.000E+00
-10.711  0.000E+00
-10.701  0.000E+00
-10.691  0.000E+00
-10.681  0.000E+00
-10.671  0.000E+00
-10.661  0.000E+00
-10.651  0.000E+00
-10.641  0.000E+00
-10.631  0.000E+00
-10.621  0.000E+00
-10.611  0.000E+00
-10.601  0.000E+00
-10.591  0.000E+00
-10.581  0.000E+00
-10.571  0.000E+00
-10.561  0.000E+00
-10.551  0.000E+00
-10.541  0.000E+00
-10.531  0.000E+00
-10.521  0.000E+00
-10.511  0.000E+00
-10.501  0.000E+00
-10.491  0.000E+00
-10.481  0.000E+00
-10.471  0.000E+00
-10.461  0.000E+00
-10.451  0.000E+00
-10.441  0.000E+00
-10.431  0.000E+00
-10.421  0.000E+00
-10.411  0.000E+00
-10.401  0.000E+00
-10.391  0.000E+00
-10.381  0.000E+00
-10.371  0.000E+00
-10.361  0.000E+00
-10.351  0.000E+00
-10.341  0.000E+00
-10.331  0.000E+00
-10.321  0.000E+00
-10.311  0.000E+00
-10.301  0.000E+00
-10.291  0.000E+00
-10.281  0.000E+00
-10.271  0.000E+00
-10.261  0.000E+00
-10.251  0.000E+00
-10.241  0.000E+00
-10.231  0.000E+00
-10.221  0.000E+00
-10.211  0.000E+00
-10.201  0.000E+00
-10.191  0.000E+00
-10.181  0.000E+00
-10.171  0.000E+00
-10.161  0.000E+00
-10.151  0.000E+00
-10.141  0.000E+00
-10.131  0.000E+00
-10.121  0.000E+00
-10.111  0.000E+00
-10.101  0.000E+00
-10.091  0.000E+00
-10.081  0.000E+00
-10.071  0.000E+00
-10.061  0.000E+00
-10.051  0.000E+00
-10.041  0.000E+00
-10.031  0.000E+00
-10.021  0.000E+00
-10.011  0.000E+00
-10.001  0.000E+00
 -9.991  0.000E+00
 -9.981  0.000E+00
 -9.971  0.000E+00
 -9.961  0.000E+00
 -9.951  0.000E+00
 -9.941  0.000E+00
 -9.931  0.000E+00
 -9.921  0.000E+00
 -9.911  0.000E+00
 -9.901  0.000E+00
 -9.891  0.000E+00
 -9.881  0.000E+00
 -9.871  0.000E+00
 -9.861  0.000E+00
 -9.851  0.000E+00
 -9.841  0.000E+00
 -9.831  0.000E+00
 -9.821  0.000E+00
 -9.811  0.000E+00
 -9.801  0.000E+00
 -9.791  0.000E+00
 -9.781  0.000E+00
 -9.771  0.000E+00
 -9.761  0.000E+00
 -9.751  0.000E+00
 -9.741  0.144E+02
 -9.731  0.720E+01
 -9.721  0.480E+01
 -9.711  0.480E+01
 -9.701  0.360E+01
 -9.691  0.360E+01
 -9.681  0.360E+01
 -9.671  0.288E+01
 -9.661  0.288E+01
 -9.651  0.288E+01
 -9.641  0.240E+01
 -9.631  0.240E+01
 -9.621  0.240E+01
 -9.611  0.240E+01
 -9.601  0.206E+01
 -9.591  0.206E+01
 -9.581  0.206E+01
 -9.571  0.206E+01
 -9.561  0.206E+01
 -9.551  0.181E+01
 -9.541  0.181E+01
 -9.531  0.181E+01
 -9.521  0.181E+01
 -9.511  0.181E+01
 -9.501  0.161E+01
 -9.491  0.161E+01
 -9.481  0.161E+01
 -9.471  0.161E+01
 -9.461  0.161E+01
 -9.451  0.161E+01
 -9.441  0.145E+01
 -9.431  0.145E+01
 -9.421  0.145E+01
 -9.411  0.145E+01
 -9.401  0.145E+01
 -9.391  0.145E+01
 -9.381  0.132E+01
 -9.371  0.132E+01
 -9.361  0.132E+01
 -9.351  0.132E+01
 -9.341  0.132E+01
 -9.331  0.132E+01
 -9.321  0.132E+01
 -9.311  0.132E+01
 -9.301  0.121E+01
 -9.291  0.121E+01
 -9.281  0.121E+01
 -9.271  0.121E+01
 -9.261  0.121E+01
 -9.251  0.121E+01
 -9.241  0.121E+01
 -9.231  0.121E+01
 -9.221  0.112E+01
 -9.211  0.112E+01
 -9.201  0.112E+01
 -9.191  0.112E+01
 -9.181  0.112E+01
 -9.171  0.112E+01
 -9.161  0.112E+01
 -9.151  0.112E+01
 -9.141  0.104E+01
 -9.131  0.104E+01
 -9.121  0.104E+01
 -9.111  0.104E+01
 -9.101  0.104E+01
 -9.091  0.104E+01
 -9.081  0.104E+01
 -9.071  0.104E+01
 -9.061  0.104E+01
 -9.051  0.974E+00
 -9.041  0.974E+00
 -9.031  0.975E+00
 -9.021  0.975E+00
 -9.011  0.975E+00
 -9.001  0.976E+00
 -8.991  0.976E+00
 -8.981  0.976E+00
 -8.971  0.976E+00
 -8.961  0.976E+00
 -8.951  0.916E+00
 -8.941  0.916E+00
 -8.931  0.916E+00
 -8.921  0.916E+00
 -8.911  0.916E+00
 -8.901  0.916E+00
 -8.891  0.916E+00
 -8.881  0.916E+00
 -8.871  0.916E+00
 -8.861  0.916E+00
 -8.851  0.917E+00
 -8.841  0.864E+00
 -8.831  0.864E+00
 -8.821  0.864E+00
 -8.811  0.864E+00
 -8.801  0.864E+00
 -8.791  0.864E+00
 -8.781  0.864E+00
 -8.771  0.864E+00
 -8.761  0.864E+00
 -8.751  0.864E+00
 -8.741  0.864E+00
 -8.731  0.818E+00
 -8.721  0.818E+00
 -8.711  0.818E+00
 -8.701  0.818E+00
 -8.691  0.818E+00
 -8.681  0.818E+00
 -8.671  0.818E+00
 -8.661  0.818E+00
 -8.651  0.818E+00
 -8.641  0.818E+00
 -8.631  0.818E+00
 -8.621  0.818E+00
 -8.611  0.776E+00
 -8.601  0.776E+00
 -8.591  0.776E+00
 -8.581  0.776E+00
 -8.571  0.776E+00
 -8.561  0.776E+00
 -8.551  0.776E+00
 -8.541  0.776E+00
 -8.531  0.777E+00
 -8.521  0.777E+00
 -8.511  0.777E+00
 -8.501  0.777E+00
 -8.491  0.739E+00
 -8.481  0.739E+00
 -8.471  0.739E+00
 -8.461  0.739E+00
 -8.451  0.740E+00
 -8.441  0.740E+00
 -8.431  0.740E+00
 -8.421  0.740E+00
 -8.411  0.740E+00
 -8.401  0.740E+00
 -8.391  0.740E+00
 -8.381  0.740E+00
 -8.371  0.740E+00
 -8.361  0.706E+00
 -8.351  0.706E+00
 -8.341  0.706E+00
 -8.331  0.706E+00
 -8.321  0.706E+00
 -8.311  0.706E+00
 -8.301  0.706E+00
 -8.291  0.706E+00
 -8.281  0.706E+00
 -8.271  0.706E+00
 -8.261  0.706E+00
 -8.251  0.706E+00
 -8.241  0.706E+00
 -8.231  0.706E+00
 -8.221  0.675E+00
 -8.211  0.675E+00
 -8.201  0.675E+00
 -8.191  0.675E+00
 -8.181  0.675E+00
 -8.171  0.676E+00
 -8.161  0.676E+00
 -8.151  0.676E+00
 -8.141  0.676E+00
 -8.131  0.676E+00
 -8.121  0.676E+00
 -8.111  0.676E+00
 -8.101  0.676E+00
 -8.091  0.676E+00
 -8.081  0.647E+00
 -8.071  0.647E+00
 -8.061  0.647E+00
 -8.051  0.648E+00
 -8.041  0.648E+00
 -8.031  0.648E+00
 -8.021  0.648E+00
 -8.011  0.648E+00
 -8.001  0.648E+00
 -7.991  0.648E+00
 -7.981  0.648E+00
 -7.971  0.648E+00
 -7.961  0.648E+00
 -7.951  0.648E+00
 -7.941  0.648E+00
 -7.931  0.622E+00
 -7.921  0.622E+00
 -7.911  0.622E+00
 -7.901  0.622E+00
 -7.891  0.622E+00
 -7.881  0.622E+00
 -7.871  0.622E+00
 -7.861  0.622E+00
 -7.851  0.622E+00
 -7.841  0.622E+00
 -7.831  0.622E+00
 -7.821  0.622E+00
 -7.811  0.622E+00
 -7.801  0.622E+00
 -7.791  0.622E+00
 -7.781  0.622E+00
 -7.771  0.598E+00
 -7.761  0.598E+00
 -7.751  0.598E+00
 -7.741  0.598E+00
 -7.731  0.598E+00
 -7.721  0.598E+00
 -7.711  0.598E+00
 -7.701  0.598E+00
 -7.691  0.598E+00
 -7.681  0.598E+00
 -7.671  0.598E+00
 -7.661  0.598E+00
 -7.651  0.598E+00
 -7.641  0.598E+00
 -7.631  0.599E+00
 -7.621  0.599E+00
 -7.611  0.576E+00
 -7.601  0.576E+00
 -7.591  0.576E+00
 -7.581  0.576E+00
 -7.571  0.576E+00
 -7.561  0.576E+00
 -7.551  0.576E+00
 -7.541  0.576E+00
 -7.531  0.576E+00
 -7.521  0.577E+00
 -7.511  0.577E+00
 -7.501  0.577E+00
 -7.491  0.577E+00
 -7.481  0.577E+00
 -7.471  0.577E+00
 -7.461  0.577E+00
 -7.451  0.577E+00
 -7.441  0.556E+00
 -7.431  0.556E+00
 -7.421  0.556E+00
 -7.411  0.556E+00
 -7.401  0.556E+00
 -7.391  0.556E+00
 -7.381  0.556E+00
 -7.371  0.556E+00
 -7.361  0.556E+00
 -7.351  0.556E+00
 -7.341  0.556E+00
 -7.331  0.557E+00
 -7.321  0.557E+00
 -7.311  0.557E+00
 -7.301  0.557E+00
 -7.291  0.557E+00
 -7.281  0.557E+00
 -7.271  0.557E+00
 -7.261  0.538E+00
 -7.251  0.538E+00
 -7.241  0.538E+00
 -7.231  0.538E+00
 -7.221  0.538E+00
 -7.211  0.538E+00
 -7.201  0.538E+00
 -7.191  0.538E+00
 -7.181  0.538E+00
 -7.171  0.538E+00
 -7.161  0.538E+00
 -7.151  0.538E+00
 -7.141  0.538E+00
 -7.131  0.538E+00
 -7.121  0.538E+00
 -7.111  0.538E+00
 -7.101  0.538E+00
 -7.091  0.538E+00
 -7.081  0.520E+00
 -7.071  0.520E+00
 -7.061  0.520E+00
 -7.051  0.520E+00
 -7.041  0.520E+00
 -7.031  0.520E+00
 -7.021  0.520E+00
 -7.011  0.520E+00
 -7.001  0.520E+00
 -6.991  0.520E+00
 -6.981  0.520E+00
 -6.971  0.520E+00
 -6.961  0.520E+00
 -6.951  0.521E+00
 -6.941  0.521E+00
 -6.931  0.521E+00
 -6.921  0.521E+00
 -6.911  0.521E+00
 -6.901  0.521E+00
 -6.891  0.504E+00
 -6.881  0.504E+00
 -6.871  0.504E+00
 -6.861  0.504E+00
 -6.851  0.504E+00
 -6.841  0.504E+00
 -6.831  0.504E+00
 -6.821  0.504E+00
 -6.811  0.504E+00
 -6.801  0.504E+00
 -6.791  0.504E+00
 -6.781  0.504E+00
 -6.771  0.504E+00
 -6.761  0.504E+00
 -6.751  0.504E+00
 -6.741  0.504E+00
 -6.731  0.504E+00
 -6.721  0.504E+00
 -6.711  0.504E+00
 -6.701  0.489E+00
 -6.691  0.489E+00
 -6.681  0.489E+00
 -6.671  0.489E+00
 -6.661  0.489E+00
 -6.651  0.489E+00
 -6.641  0.489E+00
 -6.631  0.489E+00
 -6.621  0.489E+00
 -6.611  0.489E+00
 -6.601  0.490E+00
 -6.591  0.490E+00
 -6.581  0.490E+00
 -6.571  0.490E+00
 -6.561  0.490E+00
 -6.551  0.490E+00
 -6.541  0.490E+00
 -6.531  0.490E+00
 -6.521  0.490E+00
 -6.511  0.490E+00
 -6.501  0.475E+00
 -6.491  0.475E+00
 -6.481  0.475E+00
 -6.471  0.475E+00
 -6.461  0.475E+00
 -6.451  0.475E+00
 -6.441  0.475E+00
 -6.431  0.475E+00
 -6.421  0.475E+00
 -6.411  0.475E+00
 -6.401  0.475E+00
 -6.391  0.475E+00
 -6.381  0.475E+00
 -6.371  0.475E+00
 -6.361  0.475E+00
 -6.351  0.475E+00
 -6.341  0.475E+00
 -6.331  0.475E+00
 -6.321  0.475E+00
 -6.311  0.475E+00
 -6.301  0.475E+00
 -6.291  0.462E+00
 -6.281  0.462E+00
 -6.271  0.462E+00
 -6.261  0.462E+00
 -6.251  0.462E+00
 -6.241  0.462E+00
 -6.231  0.462E+00
 -6.221  0.462E+00
 -6.211  0.462E+00
 -6.201  0.462E+00
 -6.191  0.462E+00
 -6.181  0.462E+00
 -6.171  0.462E+00
 -6.161  0.462E+00
 -6.151  0.462E+00
 -6.141  0.462E+00
 -6.131  0.462E+00
 -6.121  0.462E+00
 -6.111  0.462E+00
 -6.101  0.462E+00
 -6.091  0.462E+00
 -6.081  0.449E+00
 -6.071  0.449E+00
 -6.061  0.449E+00
 -6.051  0.449E+00
 -6.041  0.449E+00
 -6.031  0.449E+00
 -6.021  0.449E+00
 -6.011  0.449E+00
 -6.001  0.449E+00
 -5.991  0.449E+00
 -5.981  0.449E+00
 -5.971  0.449E+00
 -5.961  0.449E+00
 -5.951  0.449E+00
 -5.941  0.449E+00
 -5.931  0.449E+00
 -5.921  0.449E+00
 -5.911  0.449E+00
 -5.901  0.449E+00
 -5.891  0.449E+00
 -5.881  0.449E+00
 -5.871  0.449E+00
 -5.861  0.437E+00
 -5.851  0.437E+00
 -5.841  0.437E+00
 -5.831  0.437E+00
 -5.821  0.437E+00
 -5.811  0.437E+00
 -5.801  0.437E+00
 -5.791  0.437E+00
 -5.781  0.437E+00
 -5.771  0.437E+00
 -5.761  0.437E+00
 -5.751  0.437E+00
 -5.741  0.437E+00
 -5.731  0.437E+00
 -5.721  0.437E+00
 -5.711  0.437E+00
 -5.701  0.437E+00
 -5.691  0.437E+00
 -5.681  0.437E+00
 -5.671  0.437E+00
 -5.661  0.437E+00
 -5.651  0.437E+00
 -5.641  0.437E+00
 -5.631  0.426E+00
 -5.621  0.426E+00
 -5.611  0.426E+00
 -5.601  0.426E+00
 -5.591  0.426E+00
 -5.581  0.426E+00
 -5.571  0.426E+00
 -5.561  0.426E+00
 -5.551  0.426E+00
 -5.541  0.426E+00
 -5.531  0.426E+00
 -5.521  0.426E+00
 -5.511  0.426E+00
 -5.501  0.426E+00
 -5.491  0.426E+00
 -5.481  0.426E+00
 -5.471  0.426E+00
 -5.461  0.426E+00
 -5.451  0.426E+00
 -5.441  0.426E+00
 -5.431  0.426E+00
 -5.421  0.426E+00
 -5.411  0.426E+00
 -5.401  0.415E+00
 -5.391  0.415E+00
 -5.381  0.415E+00
 -5.371  0.415E+00
 -5.361  0.415E+00
 -5.351  0.415E+00
 -5.341  0.415E+00
 -5.331  0.415E+00
 -5.321  0.415E+00
 -5.311  0.415E+00
 -5.301  0.415E+00
 -5.291  0.415E+00
 -5.281  0.415E+00
 -5.271  0.415E+00
 -5.261  0.415E+00
 -5.251  0.415E+00
 -5.241  0.415E+00
 -5.231  0.415E+00
 -5.221  0.415E+00
 -5.211  0.415E+00
 -5.201  0.415E+00
 -5.191  0.415E+00
 -5.181  0.415E+00
 -5.171  0.405E+00
 -5.161  0.405E+00
 -5.151  0.405E+00
 -5.141  0.405E+00
 -5.131  0.405E+00
 -5.121  0.405E+00
 -5.111  0.405E+00
 -5.101  0.405E+00
 -5.091  0.405E+00
 -5.081  0.405E+00
 -5.071  0.405E+00
 -5.061  0.405E+00
 -5.051  0.405E+00
 -5.041  0.405E+00
 -5.031  0.405E+00
 -5.021  0.405E+00
 -5.011  0.405E+00
 -5.001  0.405E+00
 -4.991  0.405E+00
 -4.981  0.405E+00
 -4.971  0.405E+00
 -4.961  0.405E+00
 -4.951  0.405E+00
 -4.941  0.405E+00
 -4.931  0.405E+00
 -4.921  0.395E+00
 -4.911  0.395E+00
 -4.901  0.395E+00
 -4.891  0.395E+00
 -4.881  0.395E+00
 -4.871  0.395E+00
 -4.861  0.395E+00
 -4.851  0.395E+00
 -4.841  0.395E+00
 -4.831  0.395E+00
 -4.821  0.395E+00
 -4.811  0.395E+00
 -4.801  0.395E+00
 -4.791  0.395E+00
 -4.781  0.395E+00
 -4.771  0.395E+00
 -4.761  0.395E+00
 -4.751  0.395E+00
 -4.741  0.395E+00
 -4.731  0.395E+00
 -4.721  0.395E+00
 -4.711  0.395E+00
 -4.701  0.396E+00
 -4.691  0.396E+00
 -4.681  0.396E+00
 -4.671  0.388E+00
 -4.661  0.388E+00
 -4.651  0.389E+00
 -4.641  0.388E+00
 -4.631  0.388E+00
 -4.621  0.388E+00
 -4.611  0.388E+00
 -4.601  0.388E+00
 -4.591  0.388E+00
 -4.581  0.388E+00
 -4.571  0.388E+00
 -4.561  0.388E+00
 -4.551  0.388E+00
 -4.541  0.388E+00
 -4.531  0.388E+00
 -4.521  0.388E+00
 -4.511  0.388E+00
 -4.501  0.388E+00
 -4.491  0.388E+00
 -4.481  0.388E+00
 -4.471  0.388E+00
 -4.461  0.388E+00
 -4.451  0.388E+00
 -4.441  0.387E+00
 -4.431  0.388E+00
 -4.421  0.379E+00
 -4.411  0.379E+00
 -4.401  0.380E+00
 -4.391  0.380E+00
 -4.381  0.379E+00
 -4.371  0.379E+00
 -4.361  0.380E+00
 -4.351  0.379E+00
 -4.341  0.379E+00
 -4.331  0.380E+00
 -4.321  0.380E+00
 -4.311  0.379E+00
 -4.301  0.379E+00
 -4.291  0.380E+00
 -4.281  0.379E+00
 -4.271  0.379E+00
 -4.261  0.379E+00
 -4.251  0.379E+00
 -4.241  0.379E+00
 -4.231  0.379E+00
 -4.221  0.380E+00
 -4.211  0.379E+00
 -4.201  0.379E+00
 -4.191  0.379E+00
 -4.181  0.379E+00
 -4.171  0.379E+00
 -4.161  0.370E+00
 -4.151  0.370E+00
 -4.141  0.370E+00
 -4.131  0.370E+00
 -4.121  0.370E+00
 -4.111  0.369E+00
 -4.101  0.369E+00
 -4.091  0.369E+00
 -4.081  0.369E+00
 -4.071  0.369E+00
 -4.061  0.369E+00
 -4.051  0.369E+00
 -4.041  0.369E+00
 -4.031  0.369E+00
 -4.021  0.369E+00
 -4.011  0.369E+00
 -4.001  0.369E+00
 -3.991  0.369E+00
 -3.981  0.369E+00
 -3.971  0.369E+00
 -3.961  0.369E+00
 -3.951  0.369E+00
 -3.941  0.369E+00
 -3.931  0.369E+00
 -3.921  0.369E+00
 -3.911  0.369E+00
 -3.901  0.369E+00
 -3.891  0.361E+00
 -3.881  0.361E+00
 -3.871  0.361E+00
 -3.861  0.361E+00
 -3.851  0.361E+00
 -3.841  0.361E+00
 -3.831  0.361E+00
 -3.821  0.361E+00
 -3.811  0.361E+00
 -3.801  0.361E+00
 -3.791  0.361E+00
 -3.781  0.361E+00
 -3.771  0.361E+00
 -3.761  0.361E+00
 -3.751  0.361E+00
 -3.741  0.361E+00
 -3.731  0.361E+00
 -3.721  0.361E+00
 -3.711  0.361E+00
 -3.701  0.361E+00
 -3.691  0.361E+00
 -3.681  0.361E+00
 -3.671  0.361E+00
 -3.661  0.361E+00
 -3.651  0.361E+00
 -3.641  0.361E+00
 -3.631  0.361E+00
 -3.621  0.354E+00
 -3.611  0.354E+00
 -3.601  0.354E+00
 -3.591  0.354E+00
 -3.581  0.354E+00
 -3.571  0.354E+00
 -3.561  0.354E+00
 -3.551  0.354E+00
 -3.541  0.354E+00
 -3.531  0.354E+00
 -3.521  0.354E+00
 -3.511  0.354E+00
 -3.501  0.354E+00
 -3.491  0.354E+00
 -3.481  0.354E+00
 -3.471  0.354E+00
 -3.461  0.354E+00
 -3.451  0.354E+00
 -3.441  0.354E+00
 -3.431  0.354E+00
 -3.421  0.354E+00
 -3.411  0.354E+00
 -3.401  0.354E+00
 -3.391  0.354E+00
 -3.381  0.354E+00
 -3.371  0.354E+00
 -3.361  0.354E+00
 -3.351  0.354E+00
 -3.341  0.347E+00
 -3.331  0.347E+00
 -3.321  0.347E+00
 -3.311  0.347E+00
 -3.301  0.347E+00
 -3.291  0.347E+00
 -3.281  0.347E+00
 -3.271  0.347E+00
 -3.261  0.347E+00
 -3.251  0.347E+00
 -3.241  0.347E+00
 -3.231  0.347E+00
 -3.221  0.347E+00
 -3.211  0.347E+00
 -3.201  0.347E+00
 -3.191  0.347E+00
 -3.181  0.347E+00
 -3.171  0.347E+00
 -3.161  0.347E+00
 -3.151  0.347E+00
 -3.141  0.347E+00
 -3.131  0.347E+00
 -3.121  0.347E+00
 -3.111  0.347E+00
 -3.101  0.347E+00
 -3.091  0.347E+00
 -3.081  0.347E+00
 -3.071  0.347E+00
 -3.061  0.340E+00
 -3.051  0.340E+00
 -3.041  0.340E+00
 -3.031  0.340E+00
 -3.021  0.340E+00
 -3.011  0.340E+00
 -3.001  0.340E+00
 -2.991  0.340E+00
 -2.981  0.340E+00
 -2.971  0.340E+00
 -2.961  0.340E+00
 -2.951  0.340E+00
 -2.941  0.340E+00
 -2.931  0.340E+00
 -2.921  0.340E+00
 -2.911  0.340E+00
 -2.901  0.340E+00
 -2.891  0.340E+00
 -2.881  0.340E+00
 -2.871  0.340E+00
 -2.861  0.340E+00
 -2.851  0.340E+00
 -2.841  0.340E+00
 -2.831  0.340E+00
 -2.821  0.340E+00
 -2.811  0.340E+00
 -2.801  0.340E+00
 -2.791  0.340E+00
 -2.781  0.340E+00
 -2.771  0.334E+00
 -2.761  0.334E+00
 -2.751  0.334E+00
 -2.741  0.334E+00
 -2.731  0.334E+00
 -2.721  0.334E+00
 -2.711  0.334E+00
 -2.701  0.334E+00
 -2.691  0.334E+00
 -2.681  0.334E+00
 -2.671  0.334E+00
 -2.661  0.334E+00
 -2.651  0.334E+00
 -2.641  0.334E+00
 -2.631  0.334E+00
 -2.621  0.334E+00
 -2.611  0.334E+00
 -2.601  0.334E+00
 -2.591  0.334E+00
 -2.581  0.334E+00
 -2.571  0.334E+00
 -2.561  0.334E+00
 -2.551  0.334E+00
 -2.541  0.334E+00
 -2.531  0.334E+00
 -2.521  0.334E+00
 -2.511  0.334E+00
 -2.501  0.334E+00
 -2.491  0.334E+00
 -2.481  0.328E+00
 -2.471  0.328E+00
 -2.461  0.328E+00
 -2.451  0.328E+00
 -2.441  0.328E+00
 -2.431  0.328E+00
 -2.421  0.328E+00
 -2.411  0.328E+00
 -2.401  0.328E+00
 -2.391  0.328E+00
 -2.381  0.328E+00
 -2.371  0.328E+00
 -2.361  0.328E+00
 -2.351  0.328E+00
 -2.341  0.328E+00
 -2.331  0.328E+00
 -2.321  0.328E+00
 -2.311  0.328E+00
 -2.301  0.328E+00
 -2.291  0.328E+00
 -2.281  0.328E+00
 -2.271  0.328E+00
 -2.261  0.328E+00
 -2.251  0.328E+00
 -2.241  0.328E+00
 -2.231  0.328E+00
 -2.221  0.328E+00
 -2.211  0.328E+00
 -2.201  0.328E+00
 -2.191  0.328E+00
 -2.181  0.322E+00
 -2.171  0.322E+00
 -2.161  0.322E+00
 -2.151  0.322E+00
 -2.141  0.322E+00
 -2.131  0.322E+00
 -2.121  0.322E+00
 -2.111  0.322E+00
 -2.101  0.322E+00
 -2.091  0.322E+00
 -2.081  0.322E+00
 -2.071  0.322E+00
 -2.061  0.322E+00
 -2.051  0.322E+00
 -2.041  0.322E+00
 -2.031  0.322E+00
 -2.021  0.322E+00
 -2.011  0.322E+00
 -2.001  0.322E+00
 -1.991  0.322E+00
 -1.981  0.322E+00
 -1.971  0.322E+00
 -1.961  0.322E+00
 -1.951  0.322E+00
 -1.941  0.322E+00
 -1.931  0.322E+00
 -1.921  0.322E+00
 -1.911  0.322E+00
 -1.901  0.322E+00
 -1.891  0.322E+00
 -1.881  0.317E+00
 -1.871  0.317E+00
 -1.861  0.317E+00
 -1.851  0.317E+00
 -1.841  0.317E+00
 -1.831  0.317E+00
 -1.821  0.317E+00
 -1.811  0.317E+00
 -1.801  0.317E+00
 -1.791  0.317E+00
 -1.781  0.317E+00
 -1.771  0.317E+00
 -1.761  0.317E+00
 -1.751  0.317E+00
 -1.741  0.316E+00
 -1.731  0.316E+00
 -1.721  0.316E+00
 -1.711  0.316E+00
 -1.701  0.316E+00
 -1.691  0.316E+00
 -1.681  0.316E+00
 -1.671  0.316E+00
 -1.661  0.316E+00
 -1.651  0.316E+00
 -1.641  0.316E+00
 -1.631  0.316E+00
 -1.621  0.316E+00
 -1.611  0.316E+00
 -1.601  0.316E+00
 -1.591  0.316E+00
 -1.581  0.312E+00
 -1.571  0.312E+00
 -1.561  0.312E+00
 -1.551  0.312E+00
 -1.541  0.312E+00
 -1.531  0.312E+00
 -1.521  0.312E+00
 -1.511  0.312E+00
 -1.501  0.312E+00
 -1.491  0.312E+00
 -1.481  0.312E+00
 -1.471  0.312E+00
 -1.461  0.312E+00
 -1.451  0.312E+00
 -1.441  0.312E+00
 -1.431  0.312E+00
 -1.421  0.312E+00
 -1.411  0.312E+00
 -1.401  0.312E+00
 -1.391  0.312E+00
 -1.381  0.312E+00
 -1.371  0.312E+00
 -1.361  0.312E+00
 -1.351  0.312E+00
 -1.341  0.312E+00
 -1.331  0.312E+00
 -1.321  0.312E+00
 -1.311  0.312E+00
 -1.301  0.312E+00
 -1.291  0.312E+00
 -1.281  0.312E+00
 -1.271  0.312E+00
 -1.261  0.308E+00
 -1.251  0.308E+00
 -1.241  0.308E+00
 -1.231  0.308E+00
 -1.221  0.308E+00
 -1.211  0.308E+00
 -1.201  0.308E+00
 -1.191  0.307E+00
 -1.181  0.307E+00
 -1.171  0.307E+00
 -1.161  0.307E+00
 -1.151  0.307E+00
 -1.141  0.307E+00
 -1.131  0.307E+00
 -1.121  0.307E+00
 -1.111  0.307E+00
 -1.101  0.307E+00
 -1.091  0.307E+00
 -1.081  0.307E+00
 -1.071  0.307E+00
 -1.061  0.306E+00
 -1.051  0.306E+00
 -1.041  0.306E+00
 -1.031  0.306E+00
 -1.021  0.306E+00
 -1.011  0.306E+00
 -1.001  0.306E+00
 -0.991  0.306E+00
 -0.981  0.306E+00
 -0.971  0.306E+00
 -0.961  0.306E+00
 -0.951  0.302E+00
 -0.941  0.302E+00
 -0.931  0.302E+00
 -0.921  0.302E+00
 -0.911  0.302E+00
 -0.901  0.302E+00
 -0.891  0.302E+00
 -0.881  0.302E+00
 -0.871  0.302E+00
 -0.861  0.302E+00
 -0.851  0.302E+00
 -0.841  0.302E+00
 -0.831  0.302E+00
 -0.821  0.302E+00
 -0.811  0.302E+00
 -0.801  0.302E+00
 -0.791  0.302E+00
 -0.781  0.302E+00
 -0.771  0.302E+00
 -0.761  0.302E+00
 -0.751  0.302E+00
 -0.741  0.302E+00
 -0.731  0.302E+00
 -0.721  0.302E+00
 -0.711  0.302E+00
 -0.701  0.302E+00
 -0.691  0.302E+00
 -0.681  0.302E+00
 -0.671  0.302E+00
 -0.661  0.302E+00
 -0.651  0.302E+00
 -0.641  0.302E+00
 -0.631  0.298E+00
 -0.621  0.298E+00
 -0.611  0.298E+00
 -0.601  0.298E+00
 -0.591  0.298E+00
 -0.581  0.298E+00
 -0.571  0.298E+00
 -0.561  0.298E+00
 -0.551  0.298E+00
 -0.541  0.298E+00
 -0.531  0.298E+00
 -0.521  0.298E+00
 -0.511  0.298E+00
 -0.501  0.298E+00
 -0.491  0.298E+00
 -0.481  0.298E+00
 -0.471  0.298E+00
 -0.461  0.298E+00
 -0.451  0.298E+00
 -0.441  0.298E+00
 -0.431  0.298E+00
 -0.421  0.298E+00
 -0.411  0.298E+00
 -0.401  0.298E+00
 -0.391  0.298E+00
 -0.381  0.298E+00
 -0.371  0.298E+00
 -0.361  0.298E+00
 -0.351  0.298E+00
 -0.341  0.298E+00
 -0.331  0.298E+00
 -0.321  0.298E+00
 -0.311  0.295E+00
 -0.301  0.295E+00
 -0.291  0.295E+00
 -0.281  0.295E+00
 -0.271  0.294E+00
 -0.261  0.294E+00
 -0.251  0.294E+00
 -0.241  0.294E+00
 -0.231  0.294E+00
 -0.221  0.294E+00
 -0.211  0.294E+00
 -0.201  0.294E+00
 -0.191  0.294E+00
 -0.181  0.294E+00
 -0.171  0.294E+00
 -0.161  0.294E+00
 -0.151  0.294E+00
 -0.141  0.294E+00
 -0.131  0.294E+00
 -0.121  0.294E+00
 -0.111  0.294E+00
 -0.101  0.294E+00
 -0.091  0.294E+00
 -0.081  0.294E+00
 -0.071  0.294E+00
 -0.061  0.294E+00
 -0.051  0.294E+00
 -0.041  0.294E+00
 -0.031  0.294E+00
 -0.021  0.294E+00
 -0.011  0.294E+00
 -0.001  0.294E+00
  0.009  0.294E+00
  0.019  0.292E+00
  0.029  0.292E+00
  0.039  0.292E+00
  0.049  0.292E+00
  0.059  0.292E+00
  0.069  0.292E+00
  0.079  0.292E+00
  0.089  0.292E+00
  0.099  0.292E+00
  0.109  0.292E+00
  0.119  0.292E+00
  0.129  0.292E+00
  0.139  0.292E+00
  0.149  0.292E+00
  0.159  0.292E+00
  0.169  0.292E+00
  0.179  0.300E+00
  0.189  0.304E+00
  0.199  0.304E+00
  0.209  0.310E+00
  0.219  0.308E+00
  0.229  0.312E+00
  0.239  0.316E+00
  0.249  0.314E+00
  0.259  0.316E+00
  0.269  0.318E+00
  0.279  0.316E+00
  0.289  0.318E+00
  0.299  0.320E+00
  0.309  0.322E+00
  0.319  0.320E+00
  0.329  0.320E+00
  0.339  0.408E+00
  0.349  0.406E+00
  0.359  0.374E+00
  0.369  0.376E+00
  0.379  0.362E+00
  0.389  0.364E+00
  0.399  0.364E+00
  0.409  0.358E+00
  0.419  0.354E+00
  0.429  0.354E+00
  0.439  0.350E+00
  0.449  0.351E+00
  0.459  0.352E+00
  0.469  0.352E+00
  0.479  0.346E+00
  0.489  0.346E+00
  0.499  0.346E+00
  0.509  0.347E+00
  0.519  0.348E+00
  0.529  0.346E+00
  0.539  0.342E+00
  0.549  0.342E+00
  0.559  0.344E+00
  0.569  0.344E+00
  0.579  0.344E+00
  0.589  0.342E+00
  0.599  0.342E+00
  0.609  0.340E+00
  0.619  0.340E+00
  0.629  0.340E+00
  0.639  0.340E+00
  0.649  0.340E+00
  0.659  0.340E+00
  0.669  0.340E+00
  0.679  0.338E+00
  0.689  0.336E+00
  0.699  0.336E+00
  0.709  0.336E+00
  0.719  0.334E+00
  0.729  0.335E+00
  0.739  0.336E+00
  0.749  0.336E+00
  0.759  0.336E+00
  0.769  0.336E+00
  0.779  0.334E+00
  0.789  0.334E+00
  0.799  0.332E+00
  0.809  0.332E+00
  0.819  0.332E+00
  0.829  0.332E+00
  0.839  0.332E+00
  0.849  0.333E+00
  0.859  0.333E+00
  0.869  0.330E+00
  0.879  0.330E+00
  0.889  0.330E+00
  0.899  0.330E+00
  0.909  0.330E+00
  0.919  0.330E+00
  0.929  0.330E+00
  0.939  0.330E+00
  0.949  0.330E+00
  0.959  0.328E+00
  0.969  0.328E+00
  0.979  0.328E+00
  0.989  0.328E+00
  0.999  0.328E+00
  1.009  0.328E+00
  1.019  0.326E+00
  1.029  0.326E+00
  1.039  0.326E+00
  1.049  0.326E+00
  1.059  0.326E+00
  1.069  0.324E+00
  1.079  0.324E+00
  1.089  0.324E+00
  1.099  0.324E+00
  1.109  0.323E+00
  1.119  0.323E+00
  1.129  0.323E+00
  1.139  0.323E+00
  1.149  0.323E+00
  1.159  0.322E+00
  1.169  0.322E+00
  1.179  0.320E+00
  1.189  0.320E+00
  1.199  0.320E+00
  1.209  0.320E+00
  1.219  0.320E+00
  1.229  0.320E+00
  1.239  0.320E+00
  1.249  0.320E+00
  1.259  0.320E+00
  1.269  0.320E+00
  1.279  0.320E+00
  1.289  0.320E+00
  1.299  0.318E+00
  1.309  0.318E+00
  1.319  0.318E+00
  1.329  0.318E+00
  1.339  0.318E+00
  1.349  0.418E+00
  1.359  0.407E+00
  1.369  0.396E+00
  1.379  0.384E+00
  1.389  0.372E+00
  1.399  0.360E+00
  1.409  0.348E+00
  1.419  0.334E+00
  1.429  0.323E+00
  1.439  0.312E+00
  1.449  0.300E+00
  1.459  0.288E+00
  1.469  0.276E+00
  1.479  0.264E+00
  1.489  0.252E+00
  1.499  0.240E+00
  1.509  0.228E+00
  1.519  0.217E+00
  1.529  0.205E+00
  1.539  0.193E+00
  1.549  0.146E+00
  1.559  0.146E+00
  1.569  0.146E+00
  1.579  0.145E+00
  1.589  0.145E+00
  1.599  0.145E+00
  1.609  0.145E+00
  1.619  0.145E+00
  1.629  0.145E+00
  1.639  0.145E+00
  1.649  0.145E+00
  1.659  0.744E+00
  1.669  0.155E+01
  1.679  0.342E+01
  1.689  0.228E-01
  1.699  0.228E-01
  1.709  0.226E-01
  1.719  0.226E-01
  1.729  0.230E-01
  1.739  0.235E-01
  1.749  0.239E-01
  1.759  0.243E-01
  1.769  0.247E-01
  1.779  0.252E-01
  1.789  0.256E-01
  1.799  0.238E-01
  1.809  0.237E-01
  1.819  0.236E-01
  1.829  0.226E-01
  1.839  0.225E-01
  1.849  0.225E-01
  1.859  0.224E-01
  1.869  0.223E-01
  1.879  0.222E-01
  1.889  0.221E-01
  1.899  0.220E-01
  1.909  0.219E-01
  1.919  0.218E-01
  1.929  0.217E-01
  1.939  0.216E-01
  1.949  0.214E-01
  1.959  0.214E-01
  1.969  0.205E-01
  1.979  0.204E-01
  1.989  0.204E-01
  1.999  0.202E-01
  2.009  0.202E-01
  2.019  0.200E-01
  2.029  0.199E-01
  2.039  0.199E-01
  2.049  0.198E-01
  2.059  0.197E-01
  2.069  0.196E-01
  2.079  0.195E-01
  2.089  0.194E-01
  2.099  0.192E-01
  2.109  0.192E-01
  2.119  0.191E-01
  2.129  0.183E-01
  2.139  0.182E-01
  2.149  0.181E-01
  2.159  0.180E-01
  2.169  0.179E-01
  2.179  0.179E-01
  2.189  0.178E-01
  2.199  0.177E-01
  2.209  0.176E-01
  2.219  0.175E-01
  2.229  0.174E-01
  2.239  0.173E-01
  2.249  0.172E-01
  2.259  0.171E-01
  2.269  0.170E-01
  2.279  0.169E-01
  2.289  0.162E-01
  2.299  0.162E-01
  2.309  0.161E-01
  2.319  0.160E-01
  2.329  0.159E-01
  2.339  0.158E-01
  2.349  0.157E-01
  2.359  0.156E-01
  2.369  0.155E-01
  2.379  0.154E-01
  2.389  0.154E-01
  2.399  0.153E-01
  2.409  0.152E-01
  2.419  0.150E-01
  2.429  0.150E-01
  2.439  0.149E-01
  2.449  0.143E-01
  2.459  0.142E-01
  2.469  0.142E-01
  2.479  0.141E-01
  2.489  0.140E-01
  2.499  0.139E-01
  2.509  0.138E-01
  2.519  0.137E-01
  2.529  0.136E-01
  2.539  0.136E-01
  2.549  0.135E-01
  2.559  0.134E-01
  2.569  0.133E-01
  2.579  0.132E-01
  2.589  0.131E-01
  2.599  0.130E-01
  2.609  0.129E-01
  2.619  0.125E-01
  2.629  0.124E-01
  2.639  0.123E-01
  2.649  0.122E-01
  2.659  0.121E-01
  2.669  0.121E-01
  2.679  0.120E-01
  2.689  0.119E-01
  2.699  0.118E-01
  2.709  0.117E-01
  2.719  0.117E-01
  2.729  0.116E-01
  2.739  0.115E-01
  2.749  0.114E-01
  2.759  0.113E-01
  2.769  0.113E-01
  2.779  0.112E-01
  2.789  0.111E-01
  2.799  0.107E-01
  2.809  0.106E-01
  2.819  0.105E-01
  2.829  0.105E-01
  2.839  0.104E-01
  2.849  0.103E-01
  2.859  0.102E-01
  2.869  0.102E-01
  2.879  0.101E-01
  2.889  0.100E-01
  2.899  0.994E-02
  2.909  0.986E-02
  2.919  0.980E-02
  2.929  0.972E-02
  2.939  0.964E-02
  2.949  0.956E-02
  2.959  0.948E-02
  2.969  0.940E-02
  2.979  0.908E-02
  2.989  0.902E-02
  2.999  0.894E-02
  3.009  0.888E-02
  3.019  0.880E-02
  3.029  0.874E-02
  3.039  0.866E-02
  3.049  0.860E-02
  3.059  0.852E-02
  3.069  0.846E-02
  3.079  0.838E-02
  3.089  0.832E-02
  3.099  0.825E-02
  3.109  0.818E-02
  3.119  0.812E-02
  3.129  0.804E-02
  3.139  0.798E-02
  3.149  0.790E-02
  3.159  0.782E-02
  3.169  0.756E-02
  3.179  0.750E-02
  3.189  0.744E-02
  3.199  0.738E-02
  3.209  0.730E-02
  3.219  0.724E-02
  3.229  0.718E-02
  3.239  0.712E-02
  3.249  0.706E-02
  3.259  0.700E-02
  3.269  0.694E-02
  3.279  0.686E-02
  3.289  0.680E-02
  3.299  0.674E-02
  3.309  0.668E-02
  3.319  0.662E-02
  3.329  0.656E-02
  3.339  0.650E-02
  3.349  0.642E-02
  3.359  0.620E-02
  3.369  0.616E-02
  3.379  0.610E-02
  3.389  0.604E-02
  3.399  0.598E-02
  3.409  0.592E-02
  3.419  0.586E-02
  3.429  0.581E-02
  3.439  0.576E-02
  3.449  0.570E-02
  3.459  0.564E-02
  3.469  0.558E-02
  3.479  0.552E-02
  3.489  0.547E-02
  3.499  0.542E-02
  3.509  0.536E-02
  3.519  0.530E-02
  3.529  0.524E-02
  3.539  0.518E-02
  3.549  0.512E-02
  3.559  0.496E-02
  3.569  0.490E-02
  3.579  0.486E-02
  3.589  0.480E-02
  3.599  0.476E-02
  3.609  0.470E-02
  3.619  0.466E-02
  3.629  0.460E-02
  3.639  0.456E-02
  3.649  0.450E-02
  3.659  0.446E-02
  3.669  0.440E-02
  3.679  0.436E-02
  3.689  0.430E-02
  3.699  0.426E-02
  3.709  0.420E-02
  3.719  0.416E-02
  3.729  0.410E-02
  3.739  0.406E-02
  3.749  0.400E-02
  3.759  0.388E-02
  3.769  0.384E-02
  3.779  0.378E-02
  3.789  0.374E-02
  3.799  0.370E-02
  3.809  0.364E-02
  3.819  0.360E-02
  3.829  0.356E-02
  3.839  0.352E-02
  3.849  0.348E-02
  3.859  0.342E-02
  3.869  0.338E-02
  3.879  0.334E-02
  3.889  0.330E-02
  3.899  0.326E-02
  3.909  0.320E-02
  3.919  0.316E-02
  3.929  0.312E-02
  3.939  0.308E-02
  3.949  0.302E-02
  3.959  0.298E-02
  3.969  0.290E-02
  3.979  0.286E-02
  3.989  0.282E-02
  3.999  0.278E-02
  4.009  0.274E-02
  4.019  0.270E-02
  4.029  0.266E-02
  4.039  0.262E-02
  4.049  0.258E-02
  4.059  0.254E-02
  4.069  0.251E-02
  4.079  0.248E-02
  4.089  0.244E-02
  4.099  0.240E-02
  4.109  0.236E-02
  4.119  0.232E-02
  4.129  0.228E-02
  4.139  0.224E-02
  4.149  0.220E-02
  4.159  0.216E-02
  4.169  0.214E-02
  4.179  0.206E-02
  4.189  0.204E-02
  4.199  0.200E-02
  4.209  0.197E-02
  4.219  0.194E-02
  4.229  0.191E-02
  4.239  0.187E-02
  4.249  0.184E-02
  4.259  0.181E-02
  4.269  0.178E-02
  4.279  0.175E-02
  4.289  0.171E-02
  4.299  0.168E-02
  4.309  0.165E-02
  4.319  0.162E-02
  4.329  0.159E-02
  4.339  0.156E-02
  4.349  0.152E-02
  4.359  0.149E-02
  4.369  0.146E-02
  4.379  0.143E-02
  4.389  0.138E-02
  4.399  0.136E-02
  4.409  0.133E-02
  4.419  0.131E-02
  4.429  0.128E-02
  4.439  0.126E-02
  4.449  0.123E-02
  4.459  0.120E-02
  4.469  0.118E-02
  4.479  0.115E-02
  4.489  0.113E-02
  4.499  0.110E-02
  4.509  0.107E-02
  4.519  0.105E-02
  4.529  0.102E-02
  4.539  0.998E-03
  4.549  0.972E-03
  4.559  0.948E-03
  4.569  0.922E-03
  4.579  0.896E-03
  4.589  0.871E-03
  4.599  0.846E-03
  4.609  0.820E-03
  4.619  0.800E-03
  4.629  0.781E-03
  4.639  0.762E-03
  4.649  0.742E-03
  4.659  0.723E-03
  4.669  0.704E-03
  4.679  0.684E-03
  4.689  0.665E-03
  4.699  0.646E-03
  4.709  0.626E-03
  4.719  0.605E-03
  4.729  0.586E-03
  4.739  0.567E-03
  4.749  0.548E-03
  4.759  0.528E-03
  4.769  0.510E-03
  4.779  0.490E-03
  4.789  0.472E-03
  4.799  0.452E-03
  4.809  0.434E-03
  4.819  0.414E-03
  4.829  0.402E-03
  4.839  0.390E-03
  4.849  0.376E-03
  4.859  0.364E-03
  4.869  0.352E-03
  4.879  0.338E-03
  4.889  0.326E-03
  4.899  0.314E-03
  4.909  0.300E-03
  4.919  0.288E-03
  4.929  0.276E-03
  4.939  0.262E-03
  4.949  0.250E-03
  4.959  0.237E-03
  4.969  0.224E-03
  4.979  0.211E-03
  4.989  0.198E-03
  4.999  0.186E-03
  5.009  0.174E-03
  5.019  0.161E-03
  5.029  0.149E-03
  5.039  0.140E-03
  5.049  0.135E-03
  5.059  0.129E-03
  5.069  0.124E-03
  5.079  0.118E-03
  5.089  0.113E-03
  5.099  0.107E-03
  5.109  0.102E-03
  5.119  0.964E-04
  5.129  0.909E-04
  5.139  0.854E-04
  5.149  0.800E-04
  5.159  0.745E-04
  5.169  0.691E-04
  5.179  0.636E-04
  5.189  0.582E-04
  5.199  0.527E-04
  5.209  0.473E-04
  5.219  0.412E-04
  5.229  0.361E-04
  5.239  0.308E-04
  5.249  0.256E-04
  5.259  0.261E-04
  5.269  0.290E-04
  5.279  0.318E-04
  5.289  0.345E-04
  5.299  0.374E-04
  5.309  0.402E-04
  5.319  0.430E-04
  5.329  0.457E-04
  5.339  0.486E-04
  5.349  0.514E-04
  5.359  0.541E-04
  5.369  0.570E-04
  5.379  0.598E-04
  5.389  0.625E-04
  5.399  0.653E-04
  5.409  0.682E-04
  5.419  0.709E-04
  5.429  0.737E-04
  5.439  0.765E-04
  5.449  0.794E-04
  5.459  0.821E-04
  5.469  0.105E-02
  5.479  0.381E-03
  5.489  0.000E+00
